/*** Spectra Vista SIG Data ***/
name= S3.sig
comm= Resampled spectral data SIG file reprocesed for matching/overlap;Averaged Ref/Tar of files: RD3S7,RD3S8,RD3S9
data=
346.0  598.78  210.21  35.11
356.0  924.17  247.81  26.81
366.0  1234.61  287.06  23.25
376.0  1691.57  328.70  19.43
386.0  2110.32  337.17  15.98
396.0  2699.64  415.69  15.40
406.0  3258.06  414.39  12.72
416.0  3980.12  493.66  12.40
426.0  4560.62  525.45  11.52
436.0  5560.57  594.99  10.70
446.0  6459.13  674.12  10.44
456.0  7345.42  728.86  9.92
466.0  8824.96  853.05  9.67
476.0  10121.58  968.89  9.57
486.0  10943.49  995.55  9.10
496.0  12761.25  1130.33  8.86
506.0  14311.81  1260.77  8.81
516.0  15112.04  1327.97  8.79
526.0  16957.18  1459.21  8.61
536.0  19355.60  1653.17  8.54
546.0  21330.59  1827.74  8.57
556.0  21581.55  1870.97  8.67
566.0  23226.44  2080.48  8.96
576.0  25810.52  2509.64  9.72
586.0  27755.51  3173.60  11.43
596.0  29194.08  4126.81  14.14
606.0  29534.45  5359.24  18.15
616.0  31318.23  7355.32  23.49
626.0  34410.58  10505.41  30.53
636.0  34069.21  12644.18  37.11
646.0  34679.65  13437.74  38.75
656.0  34069.42  13481.77  39.57
666.0  35802.93  13206.39  36.89
676.0  37841.78  13393.88  35.39
686.0  40854.13  18991.09  46.49
696.0  41747.28  29587.12  70.87
706.0  41971.06  35969.66  85.70
716.0  41223.34  38382.26  93.11
726.0  40067.78  38893.95  97.07
736.0  39511.29  38959.64  98.60
746.0  41985.01  41980.51  99.99
756.0  42844.63  43184.97  100.79
766.0  44461.06  45322.59  101.94
776.0  45318.27  46620.73  102.87
786.0  45304.05  47045.52  103.84
796.0  44083.17  46137.85  104.66
806.0  42558.06  44889.36  105.48
816.0  42205.19  44622.43  105.73
826.0  41881.04  43968.66  104.98
836.0  42513.48  43949.09  103.38
846.0  43677.73  44923.18  102.85
856.0  44639.93  45697.22  102.37
866.0  45173.91  46035.01  101.91
876.0  45452.84  45915.94  101.02
886.0  45709.40  45565.18  99.68
896.0  45235.90  44461.93  98.29
906.0  45023.00  43648.86  96.95
916.0  44495.20  42396.26  95.28
926.0  44269.25  40888.63  92.36
936.0  45413.73  39933.45  87.93
946.0  46396.61  38556.72  83.10
956.0  47429.46  36678.04  77.33
966.0  48326.20  36025.90  74.55
976.0  49108.57  36312.80  73.94
986.0  50490.65  33984.64  67.31
996.0  50607.35  34957.11  69.08
1006.0  50486.13  35755.46  70.82
1016.0  50803.76  37101.91  73.03
1026.0  50772.47  38267.57  75.37
1036.0  50488.61  39178.44  77.60
1046.0  50910.83  40535.92  79.62
1056.0  51254.42  41564.99  81.10
1066.0  51336.62  42011.92  81.84
1076.0  51162.22  41911.29  81.92
1086.0  51303.09  41661.56  81.21
1096.0  51344.30  40988.79  79.83
1106.0  51211.90  40039.00  78.18
1116.0  50831.30  38779.02  76.29
1126.0  50674.44  37038.16  73.09
1136.0  50616.91  33962.13  67.10
1146.0  50531.75  30371.71  60.10
1156.0  50358.44  28066.35  55.73
1166.0  50175.54  27106.41  54.02
1176.0  50092.24  26663.12  53.23
1186.0  50160.75  26370.31  52.57
1196.0  49589.85  25858.08  52.14
1206.0  49136.73  25628.64  52.16
1216.0  48856.16  25706.52  52.62
1226.0  48538.40  25931.66  53.43
1236.0  48332.55  26172.68  54.15
1246.0  48044.92  26302.27  54.75
1256.0  47756.51  26333.12  55.14
1266.0  47442.71  26214.18  55.25
1276.0  47551.66  26143.54  54.98
1286.0  47606.03  25817.86  54.23
1296.0  47326.24  25076.25  52.99
1306.0  46758.50  23907.64  51.13
1316.0  46095.57  22433.03  48.67
1326.0  45453.96  20767.96  45.69
1336.0  44765.54  19097.37  42.66
1346.0  44091.89  17574.55  39.86
1356.0  43065.01  16127.14  37.45
1366.0  42453.65  14882.25  35.06
1376.0  42338.17  13392.93  31.63
1386.0  41985.88  11106.00  26.45
1396.0  41548.36  8736.30  21.03
1406.0  41106.41  7077.87  17.22
1416.0  41061.27  6187.37  15.07
1426.0  40954.01  5752.31  14.05
1436.0  40796.14  5539.56  13.58
1446.0  40594.32  5436.71  13.39
1456.0  40330.62  5394.61  13.38
1466.0  40125.74  5440.43  13.56
1476.0  39754.25  5597.57  14.08
1486.0  39484.92  5900.88  14.94
1496.0  39151.21  6280.55  16.04
1506.0  38800.67  6535.09  16.84
1516.0  38385.61  6737.02  17.55
1526.0  38038.86  6977.92  18.34
1536.0  37757.73  7218.71  19.12
1546.0  37407.06  7465.48  19.96
1556.0  37137.95  7766.90  20.91
1566.0  36823.70  8020.44  21.78
1576.0  36372.01  8284.16  22.78
1586.0  36009.48  8459.48  23.49
1596.0  35619.37  8592.15  24.12
1606.0  35232.08  8721.34  24.75
1616.0  34829.65  8834.28  25.36
1626.0  34452.68  8924.89  25.90
1636.0  34007.58  9001.36  26.47
1646.0  33523.68  9029.17  26.93
1656.0  33037.62  8999.59  27.24
1666.0  32548.04  8911.86  27.38
1676.0  32123.29  8772.72  27.31
1686.0  32117.51  8676.13  27.01
1696.0  31764.57  8438.56  26.57
1706.0  31316.98  8132.65  25.97
1716.0  30611.05  7732.58  25.26
1726.0  30177.81  7408.49  24.55
1736.0  29812.17  7202.31  24.16
1746.0  29439.81  6990.30  23.74
1756.0  28928.41  6682.11  23.10
1766.0  28491.94  6439.86  22.60
1776.0  28263.25  6304.47  22.31
1786.0  27973.79  6160.99  22.02
1796.0  27612.53  6056.79  21.93
1806.0  27286.01  5987.30  21.94
1816.0  26879.26  5897.34  21.94
1826.0  26408.56  5784.03  21.90
1836.0  25765.82  5583.74  21.67
1846.0  25402.19  5377.54  21.17
1856.0  25067.72  5082.89  20.28
1866.0  24868.79  4622.93  18.59
1876.0  24488.38  3894.22  15.90
1886.0  24233.30  3199.33  13.20
1896.0  23683.96  2768.51  11.69
1906.0  22096.75  1471.66  6.66
1916.0  21802.32  1458.70  6.69
1926.0  21588.87  1479.32  6.85
1936.0  21449.43  1466.28  6.84
1946.0  21420.23  1498.81  7.00
1956.0  21201.75  1501.44  7.08
1966.0  21198.12  1542.17  7.28
1976.0  21006.67  1574.13  7.49
1986.0  20732.55  1595.91  7.70
1996.0  20450.49  1627.70  7.96
2006.0  20269.19  1675.90  8.27
2016.0  19957.87  1703.41  8.54
2026.0  19629.85  1725.33  8.79
2036.0  19319.95  1748.98  9.05
2046.0  19073.35  1776.15  9.31
2056.0  18736.02  1785.37  9.53
2066.0  18425.00  1786.88  9.70
2076.0  18163.31  1811.85  9.98
2086.0  17998.96  1844.83  10.25
2096.0  17698.67  1859.29  10.51
2106.0  17393.37  1878.02  10.80
2116.0  17301.34  1900.91  10.99
2126.0  17117.10  1938.84  11.33
2136.0  16805.93  1944.10  11.57
2146.0  16338.81  1925.69  11.79
2156.0  16108.43  1930.64  11.99
2166.0  15818.08  1940.11  12.27
2176.0  15571.16  1918.44  12.32
2186.0  15407.91  1934.86  12.56
2196.0  15291.27  1922.71  12.57
2206.0  15252.10  1942.01  12.73
2216.0  15137.72  1935.54  12.79
2226.0  14957.58  1877.12  12.55
2236.0  14828.49  1840.17  12.41
2246.0  14572.63  1768.25  12.13
2256.0  14413.52  1677.62  11.64
2266.0  14283.01  1639.56  11.48
2276.0  14142.85  1557.34  11.01
2286.0  14066.30  1510.16  10.74
2296.0  13956.39  1421.88  10.19
2306.0  13536.25  1316.47  9.73
2316.0  13130.37  1302.83  9.92
2326.0  13082.91  1282.44  9.80
2336.0  13030.52  1256.50  9.64
2346.0  12874.44  1219.19  9.47
2356.0  12605.38  1148.98  9.11
2366.0  12490.11  1152.51  9.23
2376.0  12262.88  1077.34  8.79
2386.0  12077.58  1055.64  8.74
2396.0  11871.57  1022.14  8.61
2406.0  11728.43  974.20  8.31
2416.0  11508.86  957.46  8.32
2426.0  11344.58  883.19  7.79
2436.0  11091.32  890.62  8.03
2446.0  10929.32  864.44  7.91
2456.0  10711.77  832.68  7.77
2466.0  10484.26  796.19  7.59
2476.0  10216.57  813.20  7.96
2486.0  9941.47  723.85  7.28
2496.0  9864.73  713.70  7.23
2506.0  10308.86  708.63  6.87
