/*** Spectra Vista SIG Data ***/
name= RT2.sig
comm= SIG file reprocesed for matching/overlap;Averaged Ref/Tar of files: RD4T4,RD4T5,RD4T6
data=
346.4  340.80  97.67  28.66
347.9  367.09  101.66  27.69
349.5  399.36  96.93  24.27
351.1  433.68  103.17  23.79
352.6  460.14  104.58  22.73
354.2  492.51  108.21  21.97
355.7  538.80  108.66  20.17
357.3  568.67  118.36  20.81
358.8  585.41  115.57  19.74
360.4  620.84  120.53  19.41
361.9  639.04  123.05  19.26
363.5  669.99  120.96  18.05
365.1  686.57  120.67  17.58
366.6  733.66  124.75  17.00
368.2  777.26  126.69  16.30
369.7  809.72  124.07  15.32
371.3  867.57  124.68  14.37
372.8  909.68  128.37  14.11
374.4  951.19  123.27  12.96
375.9  983.07  129.75  13.20
377.4  1019.66  130.53  12.80
379.0  1055.00  128.57  12.19
380.5  1084.82  127.62  11.76
382.1  1116.99  124.11  11.11
383.6  1163.77  123.98  10.65
385.2  1204.50  121.73  10.11
386.7  1260.34  124.55  9.88
388.3  1320.71  132.61  10.04
389.8  1373.87  129.93  9.46
391.3  1425.92  133.31  9.35
392.9  1463.75  139.98  9.56
394.4  1503.04  144.42  9.61
395.9  1566.86  155.33  9.91
397.5  1640.84  156.76  9.55
399.0  1713.41  156.15  9.11
400.6  1767.34  153.95  8.71
402.1  1795.68  141.04  7.85
403.6  1820.90  141.61  7.78
405.1  1866.85  139.53  7.47
406.7  1930.88  140.67  7.29
408.2  2001.41  142.56  7.12
409.7  2064.16  149.33  7.23
411.3  2128.61  152.08  7.14
412.8  2179.22  157.68  7.24
414.3  2248.03  162.19  7.21
415.8  2315.00  167.33  7.23
417.4  2384.53  164.28  6.89
418.9  2438.92  171.36  7.03
420.4  2491.25  173.48  6.96
421.9  2528.90  172.63  6.83
423.5  2576.67  171.23  6.65
425.0  2614.97  172.61  6.60
426.5  2670.30  169.13  6.33
428.0  2738.04  170.49  6.23
429.5  2820.30  169.85  6.02
431.1  2917.98  172.86  5.92
432.6  3022.17  178.41  5.90
434.1  3121.39  182.75  5.85
435.6  3210.17  179.05  5.58
437.1  3292.58  186.42  5.66
438.6  3380.78  192.05  5.68
440.1  3459.46  195.87  5.66
441.6  3549.43  202.39  5.70
443.1  3629.81  202.77  5.59
444.7  3707.22  209.61  5.65
446.2  3767.95  211.06  5.60
447.7  3836.04  219.49  5.72
449.2  3908.52  218.59  5.59
450.7  3965.52  220.76  5.57
452.2  4034.15  219.56  5.44
453.7  4115.19  218.54  5.31
455.2  4205.69  221.86  5.28
456.7  4326.08  226.45  5.23
458.2  4453.50  229.04  5.14
459.7  4591.13  234.73  5.11
461.2  4724.02  239.80  5.08
462.7  4831.21  244.15  5.05
464.2  4944.66  253.27  5.12
465.7  5062.68  256.09  5.06
467.2  5160.93  262.31  5.08
468.7  5264.00  268.27  5.10
470.2  5336.05  278.68  5.22
471.7  5439.94  285.00  5.24
473.2  5622.31  295.88  5.26
474.6  5770.75  299.84  5.20
476.1  5808.80  290.58  5.00
477.6  5821.61  287.88  4.95
479.1  5853.68  280.13  4.79
480.6  5893.36  285.74  4.85
482.1  5967.83  283.88  4.76
483.6  6058.48  289.00  4.77
485.1  6170.68  286.96  4.65
486.6  6309.93  292.82  4.64
488.0  6450.44  299.65  4.65
489.5  6599.70  303.83  4.60
491.0  6753.96  313.26  4.64
492.5  6904.44  319.90  4.63
494.0  7062.38  326.78  4.63
495.4  7196.48  332.42  4.62
496.9  7332.14  343.80  4.69
498.4  7463.08  349.78  4.69
499.9  7593.07  361.36  4.76
501.4  7717.26  371.10  4.81
502.8  7836.22  378.61  4.83
504.3  7936.20  390.24  4.92
505.8  8043.74  400.83  4.98
507.2  8110.53  410.64  5.06
508.7  8150.98  417.51  5.12
510.2  8186.99  425.70  5.20
511.6  8208.23  435.31  5.30
513.1  8262.60  447.30  5.41
514.6  8332.74  458.99  5.51
516.0  8382.21  465.12  5.55
517.5  8475.27  482.55  5.69
519.0  8590.00  498.92  5.81
520.5  8695.28  511.68  5.88
521.9  8839.73  529.55  5.99
523.4  9001.38  551.23  6.12
524.8  9160.51  571.23  6.24
526.3  9344.82  587.80  6.29
527.8  9530.69  613.44  6.44
529.2  9699.19  632.96  6.53
530.7  9886.41  658.50  6.66
532.1  10053.97  680.08  6.76
533.6  10247.97  704.67  6.88
535.0  10444.38  724.65  6.94
536.5  10635.67  749.15  7.04
538.0  10840.36  766.42  7.07
539.4  11019.87  789.50  7.16
540.9  11250.92  821.11  7.30
542.3  11448.91  847.91  7.41
543.8  11594.57  871.29  7.51
545.2  11631.87  879.93  7.56
546.6  11636.32  886.39  7.62
548.1  11642.11  895.12  7.69
549.5  11642.27  904.30  7.77
551.0  11643.87  911.19  7.83
552.4  11663.09  926.07  7.94
553.9  11675.28  935.33  8.01
555.3  11692.69  949.11  8.12
556.8  11756.06  965.75  8.21
558.2  11809.13  980.10  8.30
559.6  11881.48  1000.32  8.42
561.1  11993.31  1025.70  8.55
562.5  12114.90  1049.53  8.66
564.0  12277.41  1079.49  8.79
565.4  12429.83  1111.86  8.95
566.8  12614.17  1149.87  9.12
568.3  12791.50  1186.08  9.27
569.7  12985.20  1228.44  9.46
571.1  13165.80  1267.99  9.63
572.6  13351.23  1311.55  9.82
574.0  13536.60  1357.62  10.03
575.4  13706.72  1405.80  10.26
576.9  13868.66  1454.37  10.49
578.3  14020.26  1504.84  10.73
579.7  14159.22  1556.96  11.00
581.1  14279.24  1603.98  11.23
582.6  14408.29  1661.15  11.53
584.0  14522.00  1720.59  11.85
585.4  14676.52  1791.74  12.21
586.8  14905.03  1874.15  12.57
588.3  15133.95  1959.98  12.95
589.7  15331.68  2044.22  13.33
591.1  15466.02  2120.74  13.71
592.5  15536.59  2185.58  14.07
594.0  15573.30  2249.60  14.45
595.4  15581.55  2310.22  14.83
596.8  15596.30  2369.51  15.19
598.2  15598.18  2436.35  15.62
599.6  15596.42  2508.84  16.09
601.0  15639.12  2584.12  16.52
602.4  15673.60  2665.72  17.01
603.9  15748.43  2747.39  17.45
605.3  15815.68  2829.35  17.89
606.7  15881.40  2912.64  18.34
608.1  16009.09  3009.16  18.80
609.5  16141.17  3103.74  19.23
610.9  16300.90  3209.09  19.69
612.3  16453.92  3314.47  20.14
613.7  16654.20  3431.75  20.61
615.1  16792.11  3541.54  21.09
616.5  16936.76  3649.13  21.55
617.9  17154.76  3771.43  21.98
619.3  17355.67  3894.58  22.44
620.7  17602.69  4027.60  22.88
622.1  17855.25  4152.93  23.26
623.5  18142.91  4270.29  23.54
624.9  18464.12  4399.96  23.83
626.3  18676.51  4511.38  24.16
627.7  18480.83  4540.72  24.57
629.1  18305.12  4591.43  25.08
630.5  18226.44  4676.65  25.66
631.9  18223.49  4772.00  26.19
633.3  18218.28  4864.11  26.70
634.7  18285.17  4954.61  27.10
636.1  18311.39  5020.55  27.42
637.5  18342.35  5071.87  27.65
638.9  18405.16  5111.13  27.77
640.2  18464.62  5120.50  27.73
641.6  18482.49  5088.09  27.53
643.0  18453.48  5018.47  27.20
644.4  18445.09  4925.40  26.70
645.8  18385.56  4801.40  26.12
647.2  18449.67  4705.51  25.50
648.5  18488.23  4606.92  24.92
649.9  18404.10  4494.72  24.42
651.3  18337.05  4402.32  24.01
652.7  18249.08  4313.92  23.64
654.1  18146.19  4283.35  23.60
655.5  18027.21  4250.18  23.58
656.8  17913.01  4217.88  23.55
658.2  18029.39  4224.18  23.43
659.6  18243.57  4234.06  23.21
660.9  18420.18  4206.52  22.84
662.3  18592.04  4176.80  22.47
663.7  18769.80  4133.92  22.02
665.0  18918.47  4082.26  21.58
666.4  19067.18  4025.37  21.11
667.8  19256.38  3990.26  20.72
669.1  19421.37  3961.30  20.40
670.5  19609.02  3950.47  20.15
671.9  19731.90  3939.37  19.96
673.2  19898.87  3960.76  19.90
674.6  20056.80  3996.29  19.92
676.0  20228.64  4064.03  20.09
677.3  20404.25  4164.58  20.41
678.7  20600.81  4303.83  20.89
680.0  20846.79  4510.13  21.63
681.4  21108.38  4786.84  22.68
682.8  21364.53  5139.68  24.06
684.1  21619.26  5578.87  25.81
685.5  21847.13  6108.44  27.96
686.8  22073.58  6730.23  30.49
688.2  22276.00  7423.75  33.33
689.5  22357.00  8118.33  36.31
690.9  22421.04  8835.36  39.41
692.2  22466.78  9547.88  42.50
693.6  22511.12  10241.93  45.50
694.9  22502.85  10862.24  48.27
696.2  22528.07  11467.80  50.90
697.6  22551.10  12032.83  53.36
698.9  22578.60  12546.34  55.57
700.3  22606.89  13031.38  57.64
701.6  22646.95  13486.55  59.55
703.0  22694.78  13900.78  61.25
704.3  22706.37  14256.34  62.79
705.6  22702.23  14557.10  64.12
707.0  22704.82  14852.36  65.42
708.3  22646.20  15069.40  66.54
709.6  22597.33  15260.45  67.53
711.0  22500.10  15406.01  68.47
712.3  22411.69  15526.34  69.28
713.6  22354.29  15681.18  70.15
714.9  22303.18  15787.76  70.79
716.3  22276.29  15919.39  71.46
717.6  22261.96  16049.72  72.09
718.9  22214.84  16129.14  72.61
720.2  22081.36  16154.87  73.16
721.6  21997.43  16189.06  73.60
722.9  21880.30  16197.74  74.03
724.2  21710.92  16158.43  74.43
725.5  21599.76  16146.51  74.75
726.8  21485.93  16115.41  75.00
728.1  21416.26  16110.24  75.22
729.5  21341.65  16098.94  75.43
730.8  21295.01  16082.27  75.52
732.1  21223.37  16047.18  75.61
733.4  21170.30  16028.10  75.71
734.7  21120.77  16013.98  75.82
736.0  21106.80  16019.14  75.90
737.3  21048.39  15990.27  75.97
738.6  21092.71  16046.76  76.08
739.9  21176.51  16140.28  76.22
741.2  21233.94  16219.47  76.38
742.5  21368.21  16348.78  76.51
743.8  21611.49  16557.31  76.61
745.1  21972.01  16865.29  76.76
746.4  22417.62  17217.26  76.80
747.7  22884.17  17587.21  76.85
749.0  23318.82  17976.20  77.09
750.3  23585.52  18200.07  77.17
751.6  23542.94  18194.99  77.28
752.9  23315.57  18042.26  77.38
754.2  23042.15  17849.98  77.47
755.4  22753.28  17634.40  77.50
756.7  22664.25  17585.24  77.59
758.0  22673.40  17614.14  77.69
759.3  22820.85  17753.22  77.79
760.6  23029.16  17937.10  77.89
761.9  23226.93  18111.43  77.98
763.1  23344.98  18223.41  78.06
764.4  23488.74  18355.88  78.15
765.7  23599.88  18462.60  78.23
767.0  23700.39  18547.28  78.26
768.2  23773.68  18625.15  78.34
769.5  23833.65  18690.08  78.42
770.8  23956.12  18811.54  78.52
772.0  23990.79  18854.67  78.59
773.3  24042.18  18934.09  78.75
774.6  24115.47  19017.19  78.86
775.8  24202.18  19097.63  78.91
777.1  24216.22  19151.93  79.09
778.4  24195.08  19150.31  79.15
779.6  24187.19  19188.88  79.33
780.9  24146.00  19180.80  79.44
782.1  24062.37  19128.80  79.50
783.4  24078.08  19169.28  79.61
784.6  24096.40  19204.07  79.70
785.9  24266.86  19362.94  79.79
787.1  24608.46  19667.31  79.92
788.4  24866.63  19916.30  80.09
789.6  24869.75  19971.25  80.30
790.9  24661.14  19858.60  80.53
792.1  24392.68  19664.45  80.62
793.4  24151.80  19475.44  80.64
794.6  23969.19  19381.96  80.86
795.8  23823.90  19288.40  80.96
797.1  23657.33  19177.79  81.06
798.3  23526.94  19108.32  81.22
799.5  23474.04  19079.52  81.28
800.8  23402.91  19044.58  81.38
802.0  23314.16  18987.01  81.44
803.2  23223.76  18933.98  81.53
804.5  23155.20  18904.65  81.64
805.7  23091.89  18870.89  81.72
806.9  23005.10  18825.21  81.83
808.1  22953.51  18788.63  81.86
809.4  22916.64  18777.99  81.94
810.6  22856.93  18738.72  81.98
811.8  22862.50  18736.28  81.95
813.0  22853.20  18753.14  82.06
814.2  22877.00  18753.44  81.98
815.4  22934.52  18804.32  81.99
816.6  22960.29  18821.14  81.97
817.9  22999.02  18850.30  81.96
819.1  22952.63  18797.49  81.90
820.3  22878.74  18721.78  81.83
821.5  22815.86  18642.26  81.71
822.7  22791.84  18603.50  81.62
823.9  22775.35  18573.05  81.55
825.1  22775.00  18532.17  81.37
826.3  22791.99  18514.63  81.23
827.5  22821.63  18477.40  80.96
828.7  22859.28  18459.49  80.75
829.9  22876.22  18423.52  80.54
831.0  22931.35  18408.79  80.28
832.2  22973.83  18399.40  80.09
833.4  23011.27  18394.13  79.94
834.6  23055.47  18409.38  79.85
835.8  23102.89  18391.59  79.61
837.0  23141.45  18415.90  79.58
838.1  23220.35  18447.82  79.45
839.3  23268.86  18467.04  79.36
840.5  23336.16  18496.05  79.26
841.7  23406.57  18532.78  79.18
842.9  23478.07  18574.14  79.11
844.0  23532.58  18590.30  79.00
845.2  23619.32  18626.27  78.86
846.4  23671.24  18656.19  78.81
847.5  23782.36  18738.68  78.79
848.7  23899.65  18808.14  78.70
849.9  23995.36  18877.08  78.67
851.0  24041.10  18907.60  78.65
852.2  24081.27  18929.67  78.61
853.3  24064.15  18910.62  78.58
854.5  24063.76  18883.78  78.47
855.6  24077.79  18874.70  78.39
856.8  24094.25  18886.44  78.39
857.9  24088.46  18886.46  78.40
859.1  24139.70  18929.01  78.41
860.2  24162.30  18921.22  78.31
861.4  24186.95  18906.38  78.17
862.5  24205.94  18915.31  78.14
863.7  24256.78  18957.06  78.15
864.8  24282.48  18950.73  78.04
865.9  24260.64  18910.99  77.95
867.1  24288.08  18915.54  77.88
868.2  24288.56  18919.14  77.89
869.3  24311.53  18907.40  77.77
870.5  24282.74  18869.25  77.71
871.6  24305.37  18851.11  77.56
872.7  24342.22  18875.54  77.54
873.9  24350.48  18880.19  77.54
875.0  24336.91  18841.28  77.42
876.1  24343.75  18817.72  77.30
877.2  24343.41  18807.40  77.26
878.3  24368.92  18772.97  77.04
879.4  24397.15  18775.24  76.96
880.5  24413.58  18759.17  76.84
881.7  24420.50  18716.19  76.64
882.8  24475.22  18747.39  76.60
883.9  24468.46  18732.88  76.56
885.0  24474.79  18718.61  76.48
886.1  24498.26  18695.50  76.31
887.2  24394.17  18640.08  76.41
888.3  24342.70  18598.89  76.40
889.4  24315.74  18512.06  76.13
890.5  24277.48  18455.45  76.02
891.6  24261.50  18413.12  75.89
892.7  24242.78  18385.73  75.84
893.8  24216.07  18380.77  75.90
894.9  24253.85  18350.08  75.66
896.0  24260.72  18307.28  75.46
897.0  24313.79  18304.97  75.29
898.1  24310.03  18267.90  75.15
899.2  24312.02  18264.06  75.12
900.3  24277.85  18194.06  74.94
901.4  24223.96  18122.17  74.81
902.4  24262.14  18120.53  74.69
903.5  24215.60  18074.39  74.64
904.6  24255.42  18071.51  74.51
905.7  24275.35  18037.32  74.30
906.7  24232.03  18005.89  74.31
907.8  24260.93  18005.06  74.21
908.9  24225.73  17934.62  74.03
909.9  24230.53  17894.01  73.85
911.0  24219.62  17820.88  73.58
912.1  24159.68  17763.32  73.52
913.1  24146.72  17710.23  73.34
914.2  24044.41  17592.85  73.17
915.2  24065.91  17558.42  72.96
916.3  24074.78  17517.82  72.76
917.3  24064.16  17470.59  72.60
918.4  24018.09  17357.19  72.27
919.4  24009.89  17307.35  72.08
920.5  24001.76  17248.35  71.86
921.5  23994.22  17192.81  71.65
922.6  23961.44  17083.72  71.30
923.6  24014.80  17050.71  71.00
924.7  24026.25  16996.47  70.74
925.7  24027.75  16906.85  70.36
926.7  24068.18  16863.08  70.06
927.8  24121.06  16792.20  69.62
928.8  24198.38  16765.60  69.28
929.9  24249.23  16752.50  69.08
930.9  24364.95  16741.10  68.71
931.9  24471.97  16695.98  68.22
932.9  24649.27  16746.15  67.94
934.0  24688.77  16666.97  67.51
935.0  24731.47  16578.76  67.04
936.0  24726.44  16470.87  66.61
937.0  24705.92  16378.62  66.29
938.1  24690.32  16248.39  65.81
939.1  24641.88  16124.28  65.43
940.1  24710.97  16047.46  64.94
941.1  24857.20  16014.57  64.43
942.1  24988.75  15985.14  63.97
943.1  25073.30  15951.20  63.62
944.1  25226.42  15926.16  63.13
945.2  25252.29  15858.36  62.80
946.2  25309.81  15744.81  62.21
947.2  25385.75  15657.67  61.68
948.2  25440.92  15617.18  61.39
949.2  25546.22  15521.57  60.76
950.2  25592.08  15406.29  60.20
951.2  25611.18  15308.16  59.77
952.2  25670.09  15195.77  59.20
953.2  25848.55  15164.09  58.67
954.2  25898.85  15095.10  58.28
955.2  25901.18  14993.80  57.89
956.2  25924.68  14884.78  57.42
957.2  25967.07  14798.49  56.99
958.2  26043.08  14731.11  56.56
959.2  26073.90  14700.84  56.38
960.1  26108.68  14648.55  56.11
961.1  26163.47  14608.37  55.83
962.1  26166.56  14577.75  55.71
963.1  26232.72  14542.92  55.44
964.1  26279.24  14558.49  55.40
965.1  26385.53  14542.89  55.12
966.1  26430.00  14513.06  54.91
967.0  26460.84  14503.56  54.81
968.0  26462.49  14479.19  54.72
969.0  26514.60  14517.76  54.75
970.0  26531.15  14464.85  54.52
971.0  26601.49  14488.22  54.46
971.9  26640.54  14488.55  54.39
972.9  26689.73  14427.95  54.06
973.9  26702.00  14429.35  54.04
974.9  26784.37  14389.13  53.72
975.8  26835.65  14406.96  53.69
976.8  26907.76  14322.81  53.23
977.8  26919.59  14399.59  53.49
978.8  27001.65  14341.86  53.11
979.7  27154.14  14276.86  52.58
981.4  27931.26  16682.23  59.73
985.3  27744.99  16757.14  60.40
989.3  27823.43  16973.11  61.00
993.3  27933.79  17226.65  61.67
997.2  27911.46  17406.84  62.36
1001.2  27870.05  17585.58  63.10
1005.2  27818.44  17755.47  63.83
1009.1  27854.84  17958.60  64.47
1013.1  27947.86  18217.29  65.18
1017.1  28020.51  18493.42  66.00
1021.0  28018.18  18721.78  66.82
1025.0  28006.41  18958.72  67.69
1029.0  27914.33  19133.00  68.54
1032.9  27806.61  19283.94  69.35
1036.9  27803.09  19493.40  70.11
1040.9  27854.95  19747.20  70.89
1044.8  27961.41  20027.60  71.63
1048.8  28076.99  20280.01  72.23
1052.7  28142.21  20494.54  72.82
1056.7  28153.25  20634.02  73.29
1060.7  28175.59  20749.87  73.64
1064.6  28184.96  20837.52  73.93
1068.6  28120.63  20836.00  74.10
1072.5  28059.15  20809.27  74.16
1076.5  28039.23  20769.14  74.07
1080.4  28041.13  20711.44  73.86
1084.4  28101.70  20669.87  73.55
1088.3  28182.69  20619.91  73.17
1092.3  28163.22  20482.72  72.73
1096.2  28140.84  20315.39  72.19
1100.2  28181.24  20166.50  71.56
1104.1  28117.59  19958.25  70.98
1108.1  28067.65  19762.68  70.41
1112.0  28014.98  19540.40  69.75
1116.0  27913.60  19251.40  68.97
1119.9  27824.49  18946.46  68.09
1123.9  27874.90  18668.27  66.97
1127.8  27855.36  18228.48  65.44
1131.8  27835.86  17663.16  63.45
1135.7  27854.79  17010.56  61.07
1139.6  27860.06  16269.71  58.40
1143.6  27849.29  15553.05  55.85
1147.5  27851.45  14933.04  53.62
1151.4  27758.28  14380.13  51.80
1155.4  27752.76  14008.54  50.48
1159.3  27779.04  13756.20  49.52
1163.2  27676.75  13519.22  48.85
1167.2  27672.18  13395.36  48.41
1171.1  27690.39  13312.28  48.08
1175.0  27654.57  13205.13  47.75
1179.0  27636.10  13114.60  47.45
1182.9  27688.86  13072.59  47.21
1186.8  27695.30  13009.51  46.97
1190.7  27569.52  12886.66  46.74
1194.7  27419.62  12773.34  46.58
1198.6  27293.81  12691.14  46.50
1202.5  27200.25  12650.85  46.51
1206.4  27132.70  12619.75  46.51
1210.3  27081.04  12608.48  46.56
1214.2  27024.83  12623.26  46.71
1218.2  26933.31  12641.94  46.94
1222.1  26861.55  12679.71  47.20
1226.0  26811.29  12729.80  47.48
1229.9  26766.06  12779.36  47.74
1233.8  26716.82  12822.49  47.99
1237.7  26693.90  12869.65  48.21
1241.6  26651.31  12909.47  48.44
1245.5  26563.65  12913.77  48.61
1249.4  26496.77  12920.43  48.76
1253.3  26424.10  12926.04  48.92
1257.2  26386.94  12935.47  49.02
1261.1  26334.40  12924.68  49.08
1265.0  26252.61  12891.65  49.11
1268.9  26145.20  12833.99  49.09
1272.8  26185.80  12823.10  48.97
1276.7  26302.73  12838.31  48.81
1280.6  26352.96  12804.81  48.59
1284.5  26317.47  12705.57  48.28
1288.4  26317.72  12609.88  47.91
1292.3  26251.50  12467.58  47.49
1296.2  26160.25  12294.42  47.00
1300.1  26059.62  12099.20  46.43
1303.9  25925.19  11867.07  45.77
1307.8  25787.70  11612.17  45.03
1311.7  25630.17  11327.85  44.20
1315.6  25482.26  11027.85  43.28
1319.5  25332.93  10705.97  42.26
1323.3  25187.48  10374.92  41.19
1327.2  25064.93  10056.95  40.12
1331.1  24923.42  9727.38  39.03
1335.0  24744.20  9387.65  37.94
1338.8  24620.86  9089.24  36.92
1342.7  24530.16  8827.37  35.99
1346.5  24331.08  8553.99  35.16
1350.4  24169.12  8311.40  34.39
1354.3  23949.14  8059.78  33.65
1358.1  23693.95  7793.04  32.89
1362.0  23530.78  7535.28  32.02
1365.8  23459.84  7290.12  31.07
1369.7  23508.05  7063.83  30.05
1373.5  23469.07  6778.10  28.88
1377.4  23330.07  6407.84  27.47
1381.2  23213.30  5956.71  25.66
1385.1  23185.27  5479.56  23.63
1389.0  23111.78  4983.30  21.56
1392.8  22984.07  4488.70  19.53
1396.6  22895.53  4041.23  17.65
1400.5  22761.66  3640.91  16.00
1404.3  22655.33  3312.90  14.62
1408.2  22624.16  3049.56  13.48
1412.0  22589.60  2838.80  12.57
1415.8  22607.28  2688.56  11.89
1419.6  22576.45  2562.67  11.35
1423.5  22542.06  2466.47  10.94
1427.3  22514.94  2395.67  10.64
1431.1  22506.00  2339.73  10.40
1434.9  22447.92  2294.26  10.22
1438.8  22413.83  2265.62  10.11
1442.6  22382.98  2247.22  10.04
1446.4  22300.88  2222.79  9.97
1450.2  22249.24  2204.55  9.91
1454.0  22182.12  2193.36  9.89
1457.8  22164.02  2190.42  9.88
1461.6  22148.38  2193.51  9.90
1465.4  22082.35  2205.65  9.99
1469.2  21969.68  2218.13  10.10
1473.0  21877.42  2242.85  10.25
1476.8  21850.58  2287.11  10.47
1480.7  21812.31  2338.25  10.72
1484.4  21730.68  2393.24  11.01
1488.2  21671.40  2457.08  11.34
1492.0  21591.63  2531.72  11.73
1495.8  21523.78  2603.36  12.10
1499.6  21454.51  2660.35  12.40
1503.4  21379.07  2704.42  12.65
1507.2  21323.35  2750.28  12.90
1510.9  21243.98  2783.48  13.10
1514.7  21144.89  2807.88  13.28
1518.5  21072.06  2848.40  13.52
1522.3  20989.34  2888.60  13.76
1526.0  20921.85  2931.80  14.01
1529.8  20884.61  2978.75  14.26
1533.6  20802.56  3029.72  14.56
1537.3  20718.23  3093.29  14.93
1541.1  20646.58  3152.74  15.27
1544.8  20580.00  3212.00  15.61
1548.6  20494.10  3272.65  15.97
1552.4  20440.57  3332.24  16.30
1556.1  20395.83  3386.05  16.60
1559.9  20329.85  3429.80  16.87
1563.6  20251.55  3475.20  17.16
1567.3  20197.89  3532.42  17.49
1571.1  20068.75  3574.04  17.81
1574.8  19979.19  3626.65  18.15
1578.6  19927.86  3680.70  18.47
1582.3  19847.81  3709.32  18.69
1586.0  19767.00  3739.36  18.92
1589.8  19685.89  3764.59  19.12
1593.5  19600.32  3780.75  19.29
1597.2  19524.93  3813.59  19.53
1600.9  19437.87  3845.60  19.78
1604.7  19353.76  3867.23  19.98
1608.4  19286.50  3894.51  20.19
1612.1  19192.76  3916.09  20.40
1615.8  19101.23  3931.40  20.58
1619.5  19051.05  3959.63  20.78
1623.2  18959.56  3980.69  21.00
1626.9  18852.85  3992.26  21.18
1630.6  18764.68  4002.68  21.33
1634.3  18691.14  4019.52  21.50
1638.0  18598.45  4027.98  21.66
1641.7  18509.81  4029.75  21.77
1645.4  18402.68  4029.90  21.90
1649.1  18288.46  4027.86  22.02
1652.8  18195.71  4025.60  22.12
1656.4  18092.34  4012.13  22.18
1660.1  18000.80  4000.44  22.22
1663.8  17885.69  3987.68  22.30
1667.5  17799.77  3969.83  22.30
1671.1  17730.24  3949.40  22.27
1674.8  17616.48  3916.33  22.23
1678.5  17581.25  3897.34  22.17
1682.1  17590.27  3882.94  22.07
1685.8  17607.50  3859.71  21.92
1689.5  17542.91  3823.33  21.79
1693.1  17457.42  3780.94  21.66
1696.8  17380.25  3732.71  21.48
1700.4  17288.56  3681.78  21.30
1704.0  17215.22  3632.65  21.10
1707.7  17067.04  3558.12  20.85
1711.3  16895.27  3480.38  20.60
1715.0  16777.65  3419.13  20.38
1718.6  16676.16  3352.80  20.11
1722.2  16593.53  3287.72  19.81
1725.9  16502.51  3235.03  19.60
1729.5  16414.51  3186.90  19.42
1733.1  16344.39  3151.49  19.28
1736.7  16279.61  3128.30  19.22
1740.3  16185.41  3091.95  19.10
1744.0  16134.66  3062.09  18.98
1747.5  16057.96  3019.83  18.81
1751.2  15927.46  2959.17  18.58
1754.8  15831.63  2904.93  18.35
1758.4  15751.09  2857.62  18.14
1762.0  15645.56  2807.08  17.94
1765.5  15566.72  2768.85  17.79
1769.1  15535.20  2749.60  17.70
1772.7  15491.98  2730.08  17.62
1776.3  15419.88  2699.90  17.51
1779.9  15347.07  2670.23  17.40
1783.5  15311.52  2653.60  17.33
1787.0  15236.40  2630.62  17.27
1790.6  15143.84  2604.75  17.20
1794.2  15087.44  2591.44  17.18
1797.8  15036.76  2584.82  17.19
1801.3  14981.52  2579.56  17.22
1804.9  14902.13  2569.88  17.25
1808.4  14858.32  2563.13  17.25
1812.0  14777.75  2555.72  17.29
1815.5  14700.64  2545.55  17.32
1819.1  14590.83  2530.33  17.34
1822.6  14487.72  2515.63  17.36
1826.2  14418.70  2494.62  17.30
1829.7  14328.55  2475.65  17.28
1833.2  14190.94  2445.93  17.24
1836.8  14045.85  2409.99  17.16
1840.3  13941.54  2372.87  17.02
1843.8  13860.63  2335.83  16.85
1847.3  13802.68  2302.28  16.68
1850.8  13724.93  2251.20  16.40
1854.3  13613.82  2187.18  16.07
1857.8  13561.60  2114.67  15.59
1861.3  13547.76  2032.16  15.00
1864.8  13535.27  1934.57  14.29
1868.3  13463.39  1797.08  13.35
1871.8  13340.16  1643.52  12.32
1875.3  13273.26  1495.44  11.27
1878.8  13256.08  1374.08  10.37
1882.3  13214.27  1240.22  9.39
1885.8  13106.59  1108.28  8.46
1889.3  12978.60  1012.04  7.80
1892.7  12864.86  944.43  7.34
1896.2  12801.57  900.39  7.03
1899.7  12669.52  873.76  6.90
1901.7  11891.87  634.86  5.34
1904.5  12018.88  615.40  5.12
1907.2  12012.75  598.50  4.98
1910.0  11893.49  590.86  4.97
1912.7  11869.88  596.50  5.03
1915.5  11831.92  595.86  5.04
1918.2  11779.87  597.58  5.07
1921.0  11683.46  585.66  5.01
1923.7  11689.18  591.41  5.06
1926.5  11652.35  589.46  5.06
1929.2  11640.20  585.75  5.03
1932.0  11635.12  595.13  5.11
1934.7  11593.68  611.78  5.28
1937.4  11519.59  617.23  5.36
1940.2  11491.19  609.55  5.30
1942.9  11531.42  612.05  5.31
1945.6  11563.58  614.07  5.31
1948.3  11524.93  631.75  5.48
1951.1  11489.17  644.14  5.61
1953.8  11466.00  647.00  5.64
1956.5  11360.04  653.91  5.76
1959.2  11418.81  661.79  5.80
1961.9  11446.18  668.51  5.84
1964.6  11367.48  675.33  5.94
1967.3  11400.90  687.28  6.03
1970.0  11289.44  682.77  6.05
1972.8  11234.23  703.06  6.26
1975.5  11291.08  714.11  6.32
1978.2  11253.68  713.45  6.34
1980.9  11190.69  724.87  6.48
1983.5  11156.37  733.87  6.58
1986.2  11145.30  737.20  6.61
1988.9  11136.57  749.81  6.73
1991.6  11039.20  751.20  6.80
1994.3  10958.34  762.52  6.96
1997.0  10994.15  790.99  7.19
1999.7  10961.15  793.54  7.24
2002.3  10945.72  789.17  7.21
2005.0  10902.57  805.47  7.39
2007.7  10847.47  822.74  7.58
2010.4  10803.32  810.82  7.51
2013.0  10762.64  824.10  7.66
2015.7  10696.03  843.03  7.88
2018.4  10628.99  846.27  7.96
2021.0  10616.50  838.67  7.90
2023.7  10554.77  854.59  8.10
2026.4  10528.70  882.55  8.38
2029.0  10481.89  880.05  8.40
2031.7  10396.32  878.80  8.45
2034.3  10404.77  889.13  8.55
2037.0  10328.24  894.23  8.66
2039.6  10285.55  899.33  8.74
2042.3  10275.69  893.99  8.70
2044.9  10201.79  896.67  8.79
2047.5  10204.59  908.82  8.91
2050.2  10158.40  910.93  8.97
2052.8  10105.20  922.13  9.13
2055.4  10049.58  925.48  9.21
2058.1  9962.40  934.27  9.38
2060.7  9933.43  947.51  9.54
2063.3  9914.96  936.32  9.44
2065.9  9868.54  934.28  9.47
2068.6  9795.96  945.44  9.65
2071.2  9784.53  951.39  9.72
2073.8  9724.21  958.90  9.86
2076.4  9688.61  975.78  10.07
2079.0  9694.50  970.39  10.01
2081.6  9703.19  965.91  9.95
2084.2  9703.71  981.94  10.12
2086.8  9599.36  982.37  10.23
2089.4  9542.55  983.38  10.31
2092.1  9497.33  988.83  10.41
2094.7  9458.10  999.11  10.56
2097.2  9452.00  1002.05  10.60
2099.8  9456.63  1010.57  10.69
2102.4  9374.47  1012.23  10.80
2105.0  9285.30  1002.25  10.79
2107.6  9259.93  1007.36  10.88
2110.2  9238.26  1018.27  11.02
2112.8  9225.66  1021.26  11.07
2115.3  9245.99  1026.69  11.10
2117.9  9244.71  1044.60  11.30
2120.5  9193.91  1056.20  11.49
2123.1  9158.18  1050.08  11.47
2125.6  9124.69  1047.37  11.48
2128.2  9072.67  1046.77  11.54
2130.8  9041.18  1052.03  11.64
2133.3  9008.27  1066.76  11.84
2135.9  8954.43  1061.94  11.86
2138.4  8866.52  1074.55  12.12
2141.0  8800.31  1064.66  12.10
2143.6  8777.41  1054.42  12.01
2146.1  8706.28  1052.90  12.09
2148.7  8619.12  1032.73  11.98
2151.2  8597.60  1053.07  12.25
2153.8  8623.97  1060.58  12.30
2156.3  8588.29  1053.35  12.26
2158.8  8514.46  1045.48  12.28
2161.4  8488.25  1049.61  12.37
2163.9  8446.98  1050.59  12.44
2166.4  8385.11  1044.69  12.46
2169.0  8382.15  1045.67  12.47
2171.5  8320.06  1032.86  12.41
2174.0  8255.63  1028.36  12.46
2176.5  8255.39  1034.54  12.53
2179.1  8221.85  1038.02  12.63
2181.6  8179.04  1031.13  12.61
2184.1  8165.08  1031.80  12.64
2186.6  8194.19  1044.02  12.74
2189.1  8127.72  1045.39  12.86
2191.6  8085.00  1026.82  12.70
2194.1  8104.87  1019.75  12.58
2196.6  8087.46  1029.19  12.73
2199.2  8120.84  1037.20  12.77
2201.7  8090.99  1036.30  12.81
2204.1  8070.33  1011.54  12.53
2206.6  8079.18  1018.29  12.60
2209.1  8065.84  1024.48  12.70
2211.6  8043.49  1003.69  12.48
2214.1  8006.31  1015.04  12.68
2216.6  7980.30  1020.49  12.79
2219.1  7980.30  1002.76  12.57
2221.6  7948.32  987.20  12.42
2224.0  7898.13  974.09  12.33
2226.5  7883.96  955.06  12.11
2229.0  7929.29  968.16  12.21
2231.5  7843.84  947.29  12.08
2233.9  7819.81  922.32  11.79
2236.4  7847.38  925.11  11.79
2238.9  7800.38  909.34  11.66
2241.3  7769.45  906.89  11.67
2243.8  7738.35  900.41  11.64
2246.2  7675.80  885.17  11.53
2248.7  7674.77  866.46  11.29
2251.2  7655.92  857.07  11.19
2253.6  7622.40  849.92  11.15
2256.1  7614.72  821.76  10.79
2258.5  7598.82  820.84  10.80
2260.9  7551.12  806.63  10.68
2263.4  7519.30  779.18  10.36
2265.8  7501.00  777.03  10.36
2268.3  7442.68  761.97  10.24
2270.7  7484.75  745.92  9.97
2273.1  7474.42  745.27  9.97
2275.6  7426.56  736.00  9.91
2278.0  7406.10  709.74  9.58
2280.4  7419.59  702.96  9.47
2282.8  7360.04  705.94  9.59
2285.3  7360.62  693.42  9.42
2287.7  7403.88  688.58  9.30
2290.1  7361.11  664.16  9.02
2292.5  7357.29  641.55  8.72
2294.9  7334.29  653.34  8.91
2297.3  7269.29  632.80  8.71
2299.7  7205.71  597.52  8.29
2302.1  7180.99  595.80  8.30
2304.5  7138.32  574.93  8.05
2306.9  7063.84  559.25  7.92
2309.3  7009.90  578.61  8.25
2311.7  6986.50  552.12  7.90
2314.1  6892.08  515.92  7.49
2316.5  6859.54  535.84  7.81
2318.9  6866.38  529.50  7.71
2321.3  6841.80  528.23  7.72
2323.7  6852.56  552.41  8.06
2326.1  6818.76  538.68  7.90
2328.4  6814.46  522.10  7.66
2330.8  6895.74  530.34  7.69
2333.2  6844.67  520.29  7.60
2335.6  6792.13  498.20  7.33
2337.9  6860.96  498.02  7.26
2340.3  6818.09  498.20  7.31
2342.7  6753.74  496.51  7.35
2345.0  6730.97  478.46  7.11
2347.4  6681.00  467.50  7.00
2349.7  6586.91  448.52  6.81
2352.1  6586.88  447.42  6.79
2354.4  6606.54  451.33  6.83
2356.8  6561.33  438.86  6.69
2359.2  6526.00  439.11  6.73
2361.5  6527.55  443.60  6.80
2363.8  6552.37  420.14  6.41
2366.2  6509.67  425.15  6.53
2368.5  6448.05  425.72  6.60
2370.9  6490.81  399.62  6.16
2373.2  6466.21  404.70  6.26
2375.5  6384.78  387.64  6.07
2377.9  6372.55  393.54  6.18
2380.2  6359.35  404.72  6.36
2382.5  6341.10  379.86  5.99
2384.8  6319.68  361.92  5.73
2387.2  6319.87  376.63  5.96
2389.5  6312.87  379.31  6.01
2391.8  6274.40  381.85  6.09
2394.1  6213.84  380.67  6.13
2396.4  6168.88  348.36  5.65
2398.7  6216.25  360.50  5.80
2401.0  6176.31  369.23  5.98
2403.3  6100.50  336.98  5.52
2405.6  6107.96  323.23  5.29
2407.9  6102.18  342.35  5.61
2410.2  6026.03  342.58  5.69
2412.5  6001.45  318.45  5.31
2414.8  6028.49  332.07  5.51
2417.1  5987.53  318.30  5.32
2419.4  5949.82  302.18  5.08
2421.7  5887.47  301.38  5.12
2424.0  5859.22  288.82  4.93
2426.2  5874.30  279.98  4.77
2428.5  5808.55  299.26  5.15
2430.8  5804.25  292.48  5.04
2433.1  5808.25  267.36  4.60
2435.4  5762.85  279.75  4.85
2437.6  5757.26  270.43  4.70
2439.9  5676.77  278.88  4.91
2442.2  5722.46  274.94  4.80
2444.4  5754.82  254.62  4.42
2446.7  5635.60  243.33  4.32
2448.9  5649.27  260.56  4.61
2451.2  5656.04  224.49  3.97
2453.4  5604.80  222.98  3.98
2455.7  5570.81  255.43  4.59
2457.9  5506.71  238.10  4.32
2460.2  5530.01  236.33  4.27
2462.4  5516.16  228.80  4.15
2464.7  5488.25  197.66  3.60
2466.9  5424.90  209.72  3.87
2469.2  5373.30  226.86  4.22
2471.4  5389.87  196.95  3.65
2473.6  5329.22  209.78  3.94
2475.9  5276.43  241.58  4.58
2478.1  5287.71  243.66  4.61
2480.3  5200.37  208.85  4.02
2482.5  5189.69  193.00  3.72
2484.8  5177.27  179.61  3.47
2487.0  5147.63  165.42  3.21
2489.2  5193.91  188.46  3.63
2491.4  5072.10  197.25  3.89
2493.6  5118.43  182.90  3.57
2495.8  5194.43  179.48  3.46
2498.0  5082.88  164.83  3.24
2500.2  5097.13  205.01  4.02
2502.4  5283.60  216.08  4.09
2504.6  5305.35  187.80  3.54
2506.8  5309.21  204.58  3.85
