/*** Spectra Vista SIG Data ***/
name= BD.sig
comm= Averaged Ref/Tar of files: BD1,BD2,BD3
data=
346.4  509.60  118.06  23.17
347.9  549.06  121.32  22.10
349.5  608.40  124.80  20.51
351.1  655.20  124.80  19.05
352.6  708.40  125.66  17.74
354.2  752.68  133.96  17.80
355.7  818.30  138.29  16.90
357.3  873.81  144.71  16.56
358.8  891.23  145.39  16.31
360.4  967.31  148.67  15.37
361.9  1009.93  153.23  15.17
363.5  1059.53  148.66  14.03
365.1  1102.67  143.78  13.04
366.6  1156.59  156.05  13.49
368.2  1218.77  154.00  12.64
369.7  1306.00  154.98  11.87
371.3  1379.56  162.87  11.81
372.8  1457.48  171.31  11.75
374.4  1528.58  167.77  10.98
375.9  1575.56  173.44  11.01
377.4  1632.76  178.24  10.92
379.0  1683.54  179.07  10.64
380.5  1741.87  168.65  9.68
382.1  1805.51  173.36  9.60
383.6  1862.60  171.99  9.23
385.2  1949.75  176.00  9.03
386.7  2036.04  184.83  9.08
388.3  2135.96  188.42  8.82
389.8  2212.47  192.88  8.72
391.3  2314.34  198.67  8.58
392.9  2392.65  212.05  8.86
394.4  2474.90  217.62  8.79
395.9  2552.82  232.78  9.12
397.5  2664.75  238.59  8.95
399.0  2774.82  247.20  8.91
400.6  2852.64  241.49  8.47
402.1  2910.24  236.33  8.12
403.6  2965.71  237.83  8.02
405.1  3036.77  240.99  7.94
406.7  3133.76  248.49  7.93
408.2  3234.33  254.23  7.86
409.7  3330.88  262.23  7.87
411.3  3437.91  275.40  8.01
412.8  3528.93  280.61  7.95
414.3  3634.54  291.42  8.02
415.8  3740.00  301.67  8.07
417.4  3868.37  307.99  7.96
418.9  3954.39  317.77  8.04
420.4  4037.85  322.37  7.98
421.9  4106.74  324.28  7.90
423.5  4196.00  324.41  7.73
425.0  4263.51  331.43  7.77
426.5  4364.50  330.81  7.58
428.0  4488.82  335.52  7.47
429.5  4615.58  341.02  7.39
431.1  4756.23  347.27  7.30
432.6  4917.76  364.50  7.41
434.1  5064.68  375.25  7.41
435.6  5199.35  383.13  7.37
437.1  5333.25  396.76  7.44
438.6  5454.84  401.91  7.37
440.1  5584.70  415.53  7.44
441.6  5717.14  422.66  7.39
443.1  5852.25  434.70  7.43
444.7  5982.11  448.26  7.49
446.2  6104.50  458.33  7.51
447.7  6213.60  470.33  7.57
449.2  6315.84  480.38  7.61
450.7  6414.72  482.00  7.51
452.2  6543.45  492.82  7.53
453.7  6682.65  502.13  7.51
455.2  6842.54  512.65  7.49
456.7  7029.44  531.99  7.57
458.2  7231.16  550.35  7.61
459.7  7428.75  569.80  7.67
461.2  7633.63  591.16  7.74
462.7  7815.14  608.12  7.78
464.2  8000.76  632.45  7.90
465.7  8191.53  651.62  7.95
467.2  8352.58  667.85  8.00
468.7  8552.00  686.93  8.03
470.2  8711.17  701.72  8.06
471.7  8854.00  720.42  8.14
473.2  9050.37  733.90  8.11
474.6  9252.88  736.17  7.96
476.1  9378.88  740.02  7.89
477.6  9464.51  738.89  7.81
479.1  9567.20  742.02  7.76
480.6  9658.16  745.48  7.72
482.1  9797.74  757.17  7.73
483.6  9963.22  770.82  7.74
485.1  10140.49  794.47  7.83
486.6  10356.19  823.97  7.96
488.0  10562.50  857.35  8.12
489.5  10784.97  900.74  8.35
491.0  10998.86  947.08  8.61
492.5  11224.98  997.71  8.89
494.0  11462.99  1057.73  9.23
495.4  11663.85  1118.48  9.59
496.9  11870.36  1183.03  9.97
498.4  12074.30  1254.93  10.39
499.9  12278.41  1330.95  10.84
501.4  12476.75  1407.87  11.28
502.8  12664.51  1489.14  11.76
504.3  12846.60  1573.68  12.25
505.8  13033.73  1663.52  12.76
507.2  13172.68  1748.23  13.27
508.7  13289.99  1827.20  13.75
510.2  13412.81  1914.88  14.28
511.6  13494.72  1995.84  14.79
513.1  13630.43  2085.42  15.30
514.6  13795.53  2176.31  15.78
516.0  13946.28  2272.33  16.29
517.5  14135.83  2373.10  16.79
519.0  14365.19  2483.82  17.29
520.5  14579.60  2595.79  17.80
521.9  14828.55  2716.31  18.32
523.4  15093.49  2845.05  18.85
524.8  15349.14  2970.08  19.35
526.3  15633.70  3100.92  19.83
527.8  15915.89  3229.51  20.29
529.2  16178.21  3354.00  20.73
530.7  16455.24  3480.45  21.15
532.1  16698.15  3594.77  21.53
533.6  16994.07  3719.96  21.89
535.0  17295.55  3844.30  22.23
536.5  17581.25  3964.30  22.55
538.0  17895.84  4091.43  22.86
539.4  18160.64  4210.57  23.19
540.9  18488.86  4349.22  23.52
542.3  18738.28  4474.28  23.88
543.8  18940.29  4578.92  24.18
545.2  19020.35  4643.68  24.41
546.6  19057.19  4694.62  24.63
548.1  19121.11  4736.41  24.77
549.5  19166.91  4784.36  24.96
551.0  19217.70  4829.86  25.13
552.4  19311.21  4885.52  25.30
553.9  19371.38  4927.27  25.44
555.3  19461.20  4976.24  25.57
556.8  19596.88  5041.41  25.73
558.2  19743.75  5105.25  25.86
559.6  19902.71  5178.72  26.02
561.1  20117.50  5264.57  26.17
562.5  20332.52  5365.60  26.39
564.0  20611.34  5478.39  26.58
565.4  20865.50  5586.57  26.77
566.8  21177.73  5712.29  26.97
568.3  21463.05  5827.48  27.15
569.7  21776.78  5951.67  27.33
571.1  22080.65  6063.05  27.46
572.6  22373.82  6180.84  27.63
574.0  22675.95  6288.92  27.73
575.4  22958.44  6394.28  27.85
576.9  23231.09  6491.79  27.94
578.3  23477.03  6585.87  28.05
579.7  23721.74  6679.24  28.16
581.1  23920.49  6759.89  28.26
582.6  24132.47  6845.76  28.37
584.0  24305.80  6921.66  28.48
585.4  24549.94  7023.27  28.61
586.8  24845.17  7149.51  28.78
588.3  25201.80  7286.14  28.91
589.7  25517.70  7402.82  29.01
591.1  25735.55  7489.53  29.10
592.5  25883.00  7542.27  29.14
594.0  25998.42  7585.29  29.18
595.4  26057.54  7616.92  29.23
596.8  26115.38  7648.78  29.29
598.2  26174.55  7684.62  29.36
599.6  26202.06  7711.99  29.43
601.0  26298.70  7765.86  29.53
602.4  26372.18  7818.37  29.65
603.9  26501.77  7880.41  29.74
605.3  26625.41  7945.89  29.84
606.7  26749.80  8003.28  29.92
608.1  26941.18  8089.78  30.03
609.5  27151.69  8177.30  30.12
610.9  27387.74  8280.82  30.24
612.3  27589.20  8372.37  30.35
613.7  27871.80  8489.74  30.46
615.1  28061.64  8563.75  30.52
616.5  28235.16  8641.11  30.60
617.9  28534.12  8763.33  30.71
619.3  28808.15  8892.13  30.87
620.7  29149.14  9056.92  31.07
622.1  29527.66  9077.03  30.74
623.5  29951.83  9016.16  30.10
624.9  30436.35  8973.86  29.48
626.3  30757.12  8914.30  28.98
627.7  30461.43  8779.62  28.82
629.1  30188.34  8742.89  28.96
630.5  30083.03  8807.23  29.28
631.9  30076.12  8953.20  29.77
633.3  30078.24  9087.54  30.21
634.7  30183.54  9216.18  30.53
636.1  30268.81  9274.89  30.64
637.5  30374.19  9330.55  30.72
638.9  30520.15  9387.81  30.76
640.2  30643.60  9415.22  30.72
641.6  30733.56  9389.02  30.55
643.0  30777.50  9308.38  30.24
644.4  30869.16  9238.31  29.93
645.8  30855.38  9145.42  29.64
647.2  31023.20  9107.39  29.36
648.5  31185.15  9067.45  29.08
649.9  31117.13  8979.99  28.86
651.3  31099.80  8943.36  28.76
652.7  31059.00  8893.04  28.63
654.1  30961.56  8681.18  28.04
655.5  30829.51  8431.99  27.35
656.8  30685.81  8204.80  26.74
658.2  30861.69  8097.35  26.24
659.6  31181.89  8036.80  25.77
660.9  31452.29  7970.66  25.34
662.3  31767.46  7894.00  24.85
663.7  32102.70  7801.92  24.30
665.0  32334.98  7698.31  23.81
666.4  32575.38  7610.21  23.36
667.8  32873.84  7551.44  22.97
669.1  33084.01  7485.79  22.63
670.5  33327.47  7454.58  22.37
671.9  33513.12  7422.61  22.15
673.2  33742.50  7441.89  22.05
674.6  33950.66  7481.30  22.04
676.0  34219.05  7574.30  22.13
677.3  34494.18  7703.17  22.33
678.7  34767.13  7883.18  22.67
680.0  35103.31  8153.10  23.23
681.4  35420.13  8504.85  24.01
682.8  35763.00  8942.87  25.01
684.1  36073.44  9474.82  26.27
685.5  36318.59  10077.05  27.75
686.8  36607.26  10747.90  29.36
688.2  36844.31  11436.76  31.04
689.5  36898.97  12105.04  32.81
690.9  36950.15  12766.06  34.55
692.2  37008.15  13398.04  36.20
693.6  37024.93  14032.15  37.90
694.9  37005.38  14552.25  39.32
696.2  37027.13  15052.01  40.65
697.6  37047.86  15505.01  41.85
698.9  37049.76  15945.60  43.04
700.3  37075.62  16358.91  44.12
701.6  37124.24  16748.29  45.11
703.0  37178.40  17110.55  46.02
704.3  37172.20  17395.65  46.80
705.6  37157.22  17662.56  47.53
707.0  37168.46  17915.17  48.20
708.3  37076.04  18083.58  48.77
709.6  36967.81  18229.65  49.31
711.0  36867.73  18332.23  49.72
712.3  36770.31  18426.03  50.11
713.6  36755.88  18548.26  50.46
714.9  36684.64  18657.83  50.86
716.3  36701.44  18778.23  51.16
717.6  36734.04  18926.88  51.52
718.9  36680.73  19010.65  51.83
720.2  36496.25  18996.31  52.05
721.6  36394.28  19023.58  52.27
722.9  36240.12  19045.17  52.55
724.2  36067.30  19013.19  52.72
725.5  35963.70  19031.66  52.92
726.8  35833.96  18999.28  53.02
728.1  35810.80  19005.47  53.07
729.5  35779.10  19006.98  53.12
730.8  35779.13  19016.14  53.15
732.1  35704.25  19018.42  53.27
733.4  35690.92  19031.93  53.32
734.7  35685.89  19033.19  53.34
736.0  35729.66  19068.25  53.37
737.3  35717.44  19071.31  53.39
738.6  35830.21  19158.26  53.47
739.9  36014.88  19315.64  53.63
741.2  36161.58  19405.57  53.66
742.5  36363.94  19582.50  53.85
743.8  36737.66  19851.76  54.04
745.1  37309.08  20222.32  54.20
746.4  37926.98  20629.46  54.39
747.7  38536.99  21029.56  54.57
749.0  39118.92  21444.31  54.82
750.3  39493.02  21668.14  54.87
751.6  39440.80  21651.17  54.90
752.9  39084.79  21504.58  55.02
754.2  38731.25  21321.55  55.05
755.4  38386.91  21092.03  54.95
756.7  38244.09  21055.02  55.05
758.0  38261.36  21098.04  55.14
759.3  38489.95  21277.06  55.28
760.6  38786.44  21518.93  55.48
761.9  39062.28  21749.76  55.68
763.1  39197.21  21874.32  55.81
764.4  39371.54  22031.92  55.96
765.7  39490.75  22150.27  56.09
767.0  39577.16  22247.84  56.21
768.2  39644.64  22335.04  56.34
769.5  39697.68  22406.04  56.44
770.8  39836.32  22530.38  56.56
772.0  39856.44  22575.03  56.64
773.3  39898.95  22674.82  56.83
774.6  39978.84  22769.50  56.95
775.8  40054.79  22836.62  57.01
777.1  40085.96  22893.08  57.11
778.4  40059.57  22877.04  57.11
779.6  39999.54  22915.57  57.29
780.9  39948.00  22917.87  57.37
782.1  39837.20  22863.56  57.39
783.4  39802.88  22892.76  57.52
784.6  39851.08  22945.93  57.58
785.9  40095.40  23147.99  57.73
787.1  40531.58  23504.86  57.99
788.4  40834.19  23719.01  58.09
789.6  40796.10  23646.75  57.96
790.9  40479.11  23424.99  57.87
792.1  40128.24  23211.23  57.84
793.4  39739.41  22988.02  57.85
794.6  39507.48  22852.29  57.84
795.8  39314.07  22756.00  57.88
797.1  39097.95  22657.23  57.95
798.3  38940.83  22603.41  58.05
799.5  38821.14  22557.63  58.11
800.8  38733.05  22511.00  58.12
802.0  38591.76  22460.18  58.20
803.2  38469.72  22399.31  58.23
804.5  38377.94  22378.54  58.31
805.7  38264.87  22353.81  58.42
806.9  38181.95  22312.47  58.44
808.1  38074.65  22303.91  58.58
809.4  38033.33  22317.85  58.68
810.6  37951.55  22318.05  58.81
811.8  37942.61  22342.45  58.88
813.0  37965.80  22382.62  58.95
814.2  37975.49  22448.27  59.11
815.4  38039.93  22518.76  59.20
816.6  38032.65  22563.13  59.33
817.9  38050.16  22606.45  59.41
819.1  37997.24  22577.18  59.42
820.3  37865.18  22520.98  59.48
821.5  37787.61  22498.87  59.54
822.7  37714.41  22487.58  59.63
823.9  37704.87  22517.64  59.72
825.1  37688.07  22524.17  59.76
826.3  37716.38  22559.87  59.81
827.5  37726.06  22600.47  59.91
828.7  37779.60  22626.11  59.89
829.9  37796.29  22672.89  59.99
831.0  37849.02  22753.21  60.12
832.2  37913.75  22837.00  60.23
833.4  37950.44  22913.87  60.38
834.6  37978.13  23000.00  60.56
835.8  38031.53  23085.72  60.70
837.0  38073.26  23191.66  60.91
838.1  38178.69  23317.34  61.07
839.3  38239.24  23405.22  61.21
840.5  38296.24  23502.96  61.37
841.7  38381.58  23649.66  61.62
842.9  38485.06  23815.05  61.88
844.0  38543.94  23922.63  62.07
845.2  38626.85  24054.11  62.27
846.4  38724.98  24146.88  62.35
847.5  38888.12  24306.22  62.50
848.7  39002.30  24439.12  62.66
849.9  39141.74  24554.94  62.73
851.0  39173.78  24600.45  62.80
852.2  39245.07  24646.12  62.80
853.3  39202.67  24673.26  62.94
854.5  39188.19  24693.25  63.01
855.6  39170.88  24711.74  63.09
856.8  39193.80  24776.75  63.22
857.9  39192.81  24815.36  63.32
859.1  39326.60  24924.83  63.38
860.2  39300.24  24961.74  63.52
861.4  39344.78  25013.24  63.57
862.5  39384.29  25047.35  63.60
863.7  39467.66  25126.63  63.66
864.8  39454.45  25148.53  63.74
865.9  39398.65  25142.99  63.82
867.1  39448.45  25188.76  63.85
868.2  39441.53  25213.47  63.93
869.3  39465.67  25247.49  63.97
870.5  39438.89  25222.58  63.95
871.6  39473.54  25259.97  63.99
872.7  39541.37  25349.11  64.11
873.9  39548.50  25353.71  64.11
875.0  39546.05  25355.40  64.12
876.1  39583.15  25375.12  64.11
877.2  39616.79  25395.05  64.10
878.3  39601.98  25377.55  64.08
879.4  39662.11  25399.12  64.04
880.5  39702.60  25417.39  64.02
881.7  39698.10  25389.43  63.96
882.8  39775.46  25416.55  63.90
883.9  39785.32  25403.76  63.85
885.0  39766.55  25344.59  63.73
886.1  39735.85  25327.39  63.74
887.2  39664.66  25205.06  63.55
888.3  39567.00  25158.62  63.58
889.4  39535.02  25069.43  63.41
890.5  39459.91  25043.51  63.47
891.6  39428.33  24986.31  63.37
892.7  39429.01  24960.24  63.30
893.8  39492.50  25003.13  63.31
894.9  39505.51  25021.07  63.34
896.0  39527.49  24984.83  63.21
897.0  39487.40  24976.99  63.25
898.1  39490.45  24980.90  63.26
899.2  39536.22  24967.69  63.15
900.3  39503.73  24918.56  63.08
901.4  39454.09  24854.66  63.00
902.4  39461.49  24874.53  63.03
903.5  39418.10  24827.25  62.98
904.6  39431.18  24822.23  62.95
905.7  39454.64  24834.42  62.94
906.7  39397.52  24826.18  63.01
907.8  39514.80  24836.21  62.85
908.9  39443.33  24757.60  62.77
909.9  39411.21  24710.84  62.70
911.0  39357.50  24658.67  62.65
912.1  39280.99  24586.19  62.59
913.1  39233.48  24511.62  62.48
914.2  39173.92  24456.07  62.43
915.2  39170.79  24411.57  62.32
916.3  39094.50  24373.26  62.34
917.3  39076.47  24353.76  62.32
918.4  39031.30  24243.63  62.11
919.4  39022.48  24175.90  61.95
920.5  39026.74  24136.39  61.85
921.5  39018.63  24091.91  61.74
922.6  38959.72  23988.82  61.57
923.6  39026.05  23964.07  61.41
924.7  39022.50  23893.67  61.23
925.7  39030.84  23828.29  61.05
926.7  39009.32  23766.87  60.93
927.8  39032.57  23670.74  60.64
928.8  39142.62  23669.09  60.47
929.9  39330.10  23651.57  60.14
930.9  39447.46  23699.69  60.08
931.9  39602.61  23735.42  59.93
932.9  39864.58  23832.67  59.78
934.0  39909.81  23772.46  59.57
935.0  39942.68  23695.39  59.32
936.0  39929.50  23611.03  59.13
937.0  39883.94  23502.94  58.93
938.1  39848.52  23412.20  58.75
939.1  39753.89  23320.36  58.66
940.1  39867.76  23263.48  58.35
941.1  39995.43  23256.64  58.15
942.1  40229.45  23290.34  57.89
943.1  40393.76  23256.32  57.57
944.1  40552.56  23308.08  57.48
945.2  40570.32  23187.75  57.15
946.2  40685.67  23136.13  56.87
947.2  40740.25  23053.15  56.59
948.2  40874.09  23025.10  56.33
949.2  40954.06  22893.76  55.90
950.2  41026.00  22785.35  55.54
951.2  41012.16  22688.06  55.32
952.2  41170.94  22583.48  54.85
953.2  41257.13  22540.10  54.63
954.2  41395.95  22485.87  54.32
955.2  41401.94  22404.67  54.12
956.2  41391.82  22276.02  53.82
957.2  41524.97  22225.41  53.52
958.2  41486.28  22180.38  53.46
959.2  41625.00  22166.70  53.25
960.1  41647.94  22132.81  53.14
961.1  41725.78  22158.59  53.11
962.1  41752.50  22099.38  52.93
963.1  41720.60  22134.23  53.05
964.1  41837.60  22116.65  52.86
965.1  41932.95  22187.76  52.91
966.1  41961.44  22214.19  52.94
967.0  42058.17  22220.63  52.83
968.0  42094.69  22267.57  52.90
969.0  42115.20  22247.44  52.83
970.0  42092.26  22290.28  52.96
971.0  42266.18  22329.30  52.83
971.9  42275.33  22370.50  52.92
972.9  42388.85  22341.84  52.71
973.9  42492.13  22292.75  52.46
974.9  42580.28  22271.38  52.30
975.8  42630.52  22248.10  52.19
976.8  42806.43  22242.15  51.96
977.8  42848.34  22312.99  52.07
978.8  42868.95  22341.34  52.12
979.7  43050.58  22344.25  51.90
980.7  43264.32  22422.16  51.83
981.7  43347.07  22469.17  51.84
982.6  43545.07  22571.10  51.83
983.6  44003.55  22746.78  51.69
984.6  44377.46  22814.64  51.41
985.5  44900.28  23314.22  51.92
986.5  45688.01  23513.25  51.46
987.5  46285.78  23903.62  51.64
988.4  47161.40  24156.88  51.22
989.4  47812.76  24717.83  51.70
990.4  48753.98  25145.77  51.58
991.3  50274.64  25767.88  51.25
992.3  50864.45  26553.85  52.21
993.2  51610.85  26837.64  52.00
994.2  53891.66  27089.21  50.27
995.2  55394.96  27753.43  50.10
996.1  55625.12  27995.94  50.33
997.1  56348.70  27881.20  49.48
998.0  54473.40  27864.80  51.15
999.0  55283.87  27461.27  49.67
1000.0  55127.21  27001.08  48.98
1000.9  55875.58  27177.04  48.64
1001.9  56355.47  28110.16  49.88
1002.8  54776.67  27262.89  49.77
1003.8  57170.04  27581.27  48.24
1004.8  54763.20  26773.12  48.89
961.5  49984.08  21914.36  43.84
965.5  48959.90  21722.05  44.37
969.5  47367.08  21245.37  44.85
973.4  45664.01  20480.44  44.85
977.4  44063.24  19905.24  45.17
981.4  43484.76  19736.81  45.39
985.3  43466.28  19829.72  45.62
989.3  43739.41  20187.17  46.15
993.3  44088.36  20587.09  46.70
997.2  44246.85  20865.26  47.16
1001.2  44240.69  21083.40  47.66
1005.2  44147.66  21285.87  48.22
1009.1  44170.72  21567.55  48.83
1013.1  44298.35  21926.84  49.50
1017.1  44409.64  22289.61  50.19
1021.0  44418.65  22588.73  50.85
1025.0  44431.92  22859.34  51.45
1029.0  44310.95  23040.83  52.00
1032.9  44196.36  23221.03  52.54
1036.9  44214.81  23465.02  53.07
1040.9  44317.48  23781.48  53.66
1044.8  44471.57  24147.65  54.30
1048.8  44586.22  24474.86  54.89
1052.7  44660.98  24753.24  55.42
1056.7  44664.90  24960.31  55.88
1060.7  44652.74  25116.29  56.25
1064.6  44643.90  25223.80  56.50
1068.6  44545.19  25253.50  56.69
1072.5  44448.63  25246.97  56.80
1076.5  44390.31  25222.40  56.82
1080.4  44363.13  25181.65  56.76
1084.4  44428.99  25153.12  56.61
1088.3  44526.89  25105.97  56.38
1092.3  44515.11  24971.72  56.10
1096.2  44485.25  24803.72  55.76
1100.2  44489.30  24656.52  55.42
1104.1  44387.15  24438.45  55.06
1108.1  44344.78  24230.44  54.64
1112.0  44255.25  23963.25  54.15
1116.0  44078.91  23603.65  53.55
1119.9  43920.46  23215.04  52.86
1123.9  43980.05  22872.31  52.01
1127.8  43933.44  22343.68  50.86
1131.8  43891.20  21636.99  49.30
1135.7  43904.71  20806.29  47.39
1139.6  43873.24  19874.95  45.30
1143.6  43814.30  18951.79  43.25
1147.5  43764.96  18152.96  41.48
1151.4  43600.54  17497.37  40.13
1155.4  43567.43  17095.85  39.24
1159.3  43548.37  16852.86  38.70
1163.2  43379.84  16636.65  38.35
1167.2  43333.14  16528.26  38.14
1171.1  43320.14  16464.17  38.01
1175.0  43247.45  16381.45  37.88
1179.0  43203.54  16305.60  37.74
1182.9  43281.26  16269.06  37.59
1186.8  43262.79  16207.58  37.46
1190.7  43059.97  16081.06  37.35
1194.7  42822.73  15958.27  37.27
1198.6  42602.18  15880.10  37.28
1202.5  42456.57  15844.65  37.32
1206.4  42335.53  15836.57  37.41
1210.3  42230.32  15851.01  37.53
1214.2  42126.94  15879.00  37.69
1218.2  41984.08  15909.81  37.89
1222.1  41854.50  15963.44  38.14
1226.0  41760.57  16029.99  38.39
1229.9  41673.90  16083.38  38.59
1233.8  41576.55  16135.09  38.81
1237.7  41528.30  16198.42  39.01
1241.6  41457.25  16242.02  39.18
1245.5  41309.15  16250.97  39.34
1249.4  41175.26  16264.85  39.50
1253.3  41058.30  16275.07  39.64
1257.2  40978.33  16291.47  39.76
1261.1  40873.57  16291.69  39.86
1265.0  40757.89  16260.86  39.90
1268.9  40587.74  16184.99  39.88
1272.8  40626.75  16175.65  39.82
1276.7  40780.33  16194.69  39.71
1280.6  40842.56  16148.92  39.54
1284.5  40748.73  16016.65  39.31
1288.4  40697.88  15880.59  39.02
1292.3  40562.50  15688.75  38.68
1296.2  40411.46  15461.66  38.26
1300.1  40239.63  15196.76  37.77
1303.9  40009.73  14873.93  37.18
1307.8  39785.54  14528.28  36.52
1311.7  39554.21  14155.50  35.79
1315.6  39326.35  13760.20  34.99
1319.5  39086.11  13337.50  34.12
1323.3  38870.69  12907.36  33.21
1327.2  38681.53  12474.18  32.25
1331.1  38474.56  12029.24  31.27
1335.0  38203.08  11579.22  30.31
1338.8  38009.09  11169.08  29.39
1342.7  37876.27  10784.22  28.47
1346.5  37598.34  10356.29  27.54
1350.4  37400.07  9948.51  26.60
1354.3  37094.65  9531.79  25.70
1358.1  36731.71  9132.79  24.86
1362.0  36487.36  8807.59  24.14
1365.8  36370.47  8537.91  23.47
1369.7  36432.94  8280.86  22.73
1373.5  36366.82  7901.33  21.73
1377.4  36166.21  7363.31  20.36
1381.2  35990.96  6748.58  18.75
1385.1  35936.27  6145.29  17.10
1389.0  35813.45  5558.52  15.52
1392.8  35598.92  4984.64  14.00
1396.6  35460.61  4472.60  12.61
1400.5  35253.63  4044.81  11.47
1404.3  35072.57  3715.36  10.59
1408.2  35016.72  3466.63  9.90
1412.0  34945.02  3277.71  9.38
1415.8  34962.39  3145.27  9.00
1419.6  34891.95  3044.75  8.73
1423.5  34842.23  2970.44  8.53
1427.3  34796.45  2910.03  8.36
1431.1  34758.75  2871.38  8.26
1434.9  34669.05  2840.00  8.19
1438.8  34606.94  2818.13  8.14
1442.6  34573.84  2808.06  8.12
1446.4  34441.31  2793.66  8.11
1450.2  34332.12  2788.24  8.12
1454.0  34220.52  2782.36  8.13
1457.8  34188.19  2790.49  8.16
1461.6  34155.00  2809.82  8.23
1465.4  34045.70  2824.24  8.30
1469.2  33870.20  2844.51  8.40
1473.0  33726.92  2884.20  8.55
1476.8  33664.28  2944.70  8.75
1480.7  33601.58  3011.32  8.96
1484.4  33488.64  3082.56  9.20
1488.2  33386.04  3166.92  9.49
1492.0  33257.25  3254.09  9.78
1495.8  33142.20  3342.74  10.09
1499.6  33034.11  3415.46  10.34
1503.4  32933.47  3470.14  10.54
1507.2  32852.74  3524.16  10.73
1510.9  32722.34  3570.73  10.91
1514.7  32573.11  3625.24  11.13
1518.5  32453.90  3698.92  11.40
1522.3  32317.90  3770.66  11.67
1526.0  32200.64  3850.87  11.96
1529.8  32127.61  3939.89  12.26
1533.6  32011.66  4020.78  12.56
1537.3  31894.88  4093.70  12.83
1541.1  31782.08  4170.01  13.12
1544.8  31651.20  4251.20  13.43
1548.6  31528.46  4322.39  13.71
1552.4  31450.00  4395.72  13.98
1556.1  31366.15  4461.71  14.22
1559.9  31270.43  4512.69  14.43
1563.6  31150.17  4574.94  14.69
1567.3  31046.10  4656.52  15.00
1571.1  30855.35  4717.89  15.29
1574.8  30723.08  4788.32  15.59
1578.6  30633.26  4857.99  15.86
1582.3  30519.48  4907.80  16.08
1586.0  30400.45  4950.94  16.29
1589.8  30269.89  4990.85  16.49
1593.5  30123.48  5030.59  16.70
1597.2  29998.09  5070.91  16.90
1600.9  29883.71  5105.57  17.08
1604.7  29753.95  5136.81  17.26
1608.4  29639.51  5175.31  17.46
1612.1  29489.62  5206.50  17.66
1615.8  29365.23  5237.86  17.84
1619.5  29298.37  5278.70  18.02
1623.2  29161.12  5305.97  18.20
1626.9  29003.45  5325.17  18.36
1630.6  28846.40  5344.17  18.53
1634.3  28721.00  5364.74  18.68
1638.0  28599.28  5366.89  18.77
1641.7  28456.49  5358.06  18.83
1645.4  28299.47  5349.00  18.90
1649.1  28138.66  5329.47  18.94
1652.8  28008.70  5309.84  18.96
1656.4  27859.80  5289.43  18.99
1660.1  27720.43  5260.96  18.98
1663.8  27551.22  5229.02  18.98
1667.5  27406.07  5200.68  18.98
1671.1  27282.14  5171.13  18.95
1674.8  27100.13  5120.16  18.89
1678.5  27060.12  5083.76  18.79
1682.1  27085.37  5055.00  18.66
1685.8  27087.74  5024.44  18.55
1689.5  26985.46  4974.90  18.44
1693.1  26859.21  4914.59  18.30
1696.8  26718.75  4857.67  18.18
1700.4  26575.97  4796.55  18.05
1704.0  26457.91  4733.77  17.89
1707.7  26210.69  4643.86  17.72
1711.3  25940.59  4543.74  17.52
1715.0  25755.85  4464.00  17.33
1718.6  25603.66  4398.26  17.18
1722.2  25471.82  4331.99  17.01
1725.9  25346.15  4269.40  16.84
1729.5  25225.17  4216.62  16.72
1733.1  25122.33  4175.06  16.62
1736.7  25028.77  4134.28  16.52
1740.3  24869.68  4077.09  16.39
1744.0  24796.20  4018.89  16.21
1747.5  24670.34  3944.35  15.99
1751.2  24460.97  3863.01  15.79
1754.8  24300.77  3790.56  15.60
1758.4  24168.99  3729.37  15.43
1762.0  24004.67  3667.91  15.28
1765.5  23878.06  3622.52  15.17
1769.1  23824.80  3593.60  15.08
1772.7  23745.17  3565.33  15.01
1776.3  23631.64  3527.33  14.93
1779.9  23517.13  3487.56  14.83
1783.5  23453.36  3464.56  14.77
1787.0  23338.16  3433.63  14.71
1790.6  23194.11  3404.91  14.68
1794.2  23099.94  3386.27  14.66
1797.8  23019.59  3366.59  14.62
1801.3  22943.45  3354.89  14.62
1804.9  22821.75  3332.88  14.60
1808.4  22758.56  3316.68  14.57
1812.0  22651.25  3297.82  14.56
1815.5  22537.46  3269.28  14.51
1819.1  22377.91  3237.04  14.47
1822.6  22230.86  3211.16  14.44
1826.2  22108.08  3179.69  14.38
1829.7  21962.63  3148.10  14.33
1833.2  21769.52  3102.44  14.25
1836.8  21568.82  3058.67  14.18
1840.3  21408.35  3030.96  14.16
1843.8  21283.15  3014.97  14.17
1847.3  21175.36  3012.65  14.23
1850.8  21026.88  2998.46  14.26
1854.3  20829.70  2958.15  14.20
1857.8  20716.80  2894.67  13.97
1861.3  20743.52  2768.97  13.35
1864.8  20771.48  2577.19  12.41
1868.3  20668.83  2345.51  11.35
1871.8  20505.60  2124.80  10.36
1875.3  20412.67  1938.91  9.50
1878.8  20386.82  1802.02  8.84
1882.3  20318.80  1678.87  8.26
1885.8  20165.84  1563.37  7.75
1889.3  19976.70  1470.80  7.36
1892.7  19815.25  1404.83  7.09
1896.2  19650.94  1369.88  6.97
1899.7  19441.16  1376.17  7.08
1903.1  19313.45  1414.33  7.32
1906.6  19304.54  1529.81  7.92
1910.0  19451.18  1723.43  8.86
1913.5  19794.95  1967.43  9.94
1917.0  20308.75  2338.59  11.52
1920.4  20662.58  2681.05  12.98
1923.8  20806.27  2799.45  13.45
1871.2  18887.00  1320.18  6.99
1873.9  18953.16  1274.28  6.72
1876.7  18991.47  1238.14  6.52
1879.5  19143.67  1131.85  5.91
1882.3  18900.39  1064.56  5.63
1885.1  18757.12  999.92  5.33
1887.8  18909.61  909.88  4.81
1890.6  18719.80  883.62  4.72
1893.4  18700.00  838.44  4.48
1896.2  18690.78  774.77  4.15
1898.9  18634.09  777.22  4.17
1901.7  18493.24  740.67  4.01
1904.5  18663.12  728.26  3.90
1907.2  18605.75  737.83  3.97
1910.0  18464.96  723.44  3.92
1912.7  18451.36  708.59  3.84
1915.5  18338.72  720.05  3.93
1918.2  18231.61  707.32  3.88
1921.0  18078.76  694.54  3.84
1923.7  18082.37  710.36  3.93
1926.5  18028.91  693.67  3.85
1929.2  17989.40  692.64  3.85
1932.0  17961.44  713.11  3.97
1934.7  17922.05  706.63  3.94
1937.4  17800.47  681.33  3.83
1940.2  17730.06  692.53  3.91
1942.9  17801.07  711.52  4.00
1945.6  17808.94  708.69  3.98
1948.3  17731.12  712.98  4.02
1951.1  17698.80  711.36  4.02
1953.8  17700.00  713.00  4.03
1956.5  17568.67  722.80  4.11
1959.2  17632.03  730.56  4.14
1961.9  17647.56  737.05  4.18
1964.6  17543.58  746.73  4.26
1967.3  17598.27  751.56  4.27
1970.0  17419.60  723.23  4.15
1972.8  17335.24  742.28  4.28
1975.5  17419.52  765.81  4.40
1978.2  17336.04  756.28  4.36
1980.9  17221.82  751.10  4.36
1983.5  17185.34  752.29  4.38
1986.2  17183.55  767.27  4.47
1988.9  17157.36  775.03  4.52
1991.6  17017.92  780.17  4.58
1994.3  16893.86  778.89  4.61
1997.0  16913.63  799.64  4.73
1999.7  16876.79  806.94  4.78
2002.3  16857.27  791.08  4.69
2005.0  16785.35  808.34  4.82
2007.7  16706.93  814.13  4.87
2010.4  16656.07  814.63  4.89
2013.0  16600.58  828.85  4.99
2015.7  16495.88  836.40  5.07
2018.4  16401.61  840.60  5.13
2021.0  16371.00  845.28  5.16
2023.7  16264.64  836.69  5.14
2026.4  16195.83  819.65  5.06
2029.0  16138.97  829.44  5.14
2031.7  16029.65  839.37  5.24
2034.3  16012.75  845.94  5.28
2037.0  15932.90  857.64  5.38
2039.6  15864.39  857.13  5.40
2042.3  15822.15  847.18  5.35
2044.9  15747.27  857.40  5.44
2047.5  15719.22  864.88  5.50
2050.2  15638.00  862.40  5.51
2052.8  15596.00  864.27  5.54
2055.4  15487.61  868.52  5.61
2058.1  15363.60  870.80  5.67
2060.7  15311.01  874.84  5.71
2063.3  15243.07  882.45  5.79
2065.9  15200.63  879.38  5.79
2068.6  15142.00  875.66  5.78
2071.2  15102.27  886.29  5.87
2073.8  15013.06  892.67  5.95
2076.4  14939.89  902.81  6.04
2079.0  14937.96  911.38  6.10
2081.6  14955.68  907.77  6.07
2084.2  14929.44  912.34  6.11
2086.8  14795.01  914.49  6.18
2089.4  14708.12  919.08  6.25
2092.1  14645.50  926.50  6.33
2094.7  14574.18  917.19  6.29
2097.2  14543.50  927.45  6.38
2099.8  14569.24  942.25  6.47
2102.4  14455.51  935.46  6.47
2105.0  14315.55  937.65  6.55
2107.6  14281.54  932.36  6.53
2110.2  14245.28  941.54  6.61
2112.8  14225.04  956.35  6.72
2115.3  14222.61  963.18  6.77
2117.9  14223.97  965.29  6.79
2120.5  14225.20  969.73  6.82
2123.1  14136.53  983.78  6.96
2125.6  14079.43  982.94  6.98
2128.2  14012.88  964.83  6.89
2130.8  13940.55  977.93  7.02
2133.3  13889.33  984.62  7.09
2135.9  13802.30  971.73  7.04
2138.4  13704.95  975.35  7.12
2141.0  13601.55  982.38  7.22
2143.6  13585.34  987.97  7.27
2146.1  13439.94  983.36  7.32
2148.7  13282.54  978.89  7.37
2151.2  13302.67  968.00  7.28
2153.8  13324.47  978.17  7.34
2156.3  13227.98  986.41  7.46
2158.8  13160.05  972.63  7.39
2161.4  13128.93  977.86  7.45
2163.9  13034.58  987.69  7.58
2166.4  12973.85  979.64  7.55
2169.0  12959.07  979.64  7.56
2171.5  12876.28  974.71  7.57
2174.0  12786.55  965.89  7.55
2176.5  12767.30  978.73  7.67
2179.1  12718.27  973.77  7.66
2181.6  12644.21  954.07  7.55
2184.1  12612.60  971.23  7.70
2186.6  12631.79  976.02  7.73
2189.1  12551.10  951.23  7.58
2191.6  12501.53  977.82  7.82
2194.1  12512.72  978.79  7.82
2196.6  12513.32  962.39  7.69
2199.2  12564.98  981.38  7.81
2201.7  12503.60  973.02  7.78
2204.1  12450.01  970.01  7.79
2206.6  12458.20  989.69  7.94
2209.1  12429.94  982.84  7.91
2211.6  12413.54  969.43  7.81
2214.1  12385.83  975.76  7.88
2216.6  12340.79  983.77  7.97
2219.1  12355.98  973.64  7.88
2221.6  12303.15  968.16  7.87
2224.0  12230.10  974.09  7.96
2226.5  12198.83  953.79  7.82
2229.0  12234.63  955.47  7.81
2231.5  12152.59  926.86  7.63
2233.9  12137.64  888.97  7.32
2236.4  12131.98  916.11  7.55
2238.9  12024.13  918.38  7.64
2241.3  12068.10  880.98  7.30
2243.8  12017.57  887.45  7.38
2246.2  11870.35  858.04  7.23
2248.7  11882.39  840.75  7.08
2251.2  11860.53  846.81  7.14
2253.6  11784.96  823.04  6.98
2256.1  11773.44  810.24  6.88
2258.5  11793.92  810.59  6.87
2260.9  11696.75  796.41  6.81
2263.4  11668.53  763.83  6.55
2265.8  11678.48  775.74  6.64
2268.3  11583.48  765.82  6.61
2270.7  11653.18  748.48  6.42
2273.1  11608.55  752.94  6.49
2275.6  11523.84  747.52  6.49
2278.0  11553.06  750.73  6.50
2280.4  11529.61  750.43  6.51
2282.8  11402.06  720.13  6.32
2285.3  11435.59  701.20  6.13
2287.7  11531.47  699.00  6.06
2290.1  11440.95  665.48  5.82
2292.5  11408.96  650.81  5.70
2294.9  11404.51  684.96  6.01
2297.3  11303.39  673.67  5.96
2299.7  11233.01  622.52  5.54
2302.1  11231.11  632.46  5.63
2304.5  11113.20  642.88  5.78
2306.9  10995.60  606.29  5.51
2309.3  10932.15  603.42  5.52
2311.7  10856.55  616.23  5.68
2314.1  10708.33  602.57  5.63
2316.5  10641.94  601.51  5.65
2318.9  10674.03  601.76  5.64
2321.3  10672.73  596.89  5.59
2323.7  10642.23  625.62  5.88
2326.1  10606.96  624.65  5.89
2328.4  10691.58  580.42  5.43
2330.8  10736.25  579.42  5.40
2333.2  10617.06  591.67  5.57
2335.6  10582.60  586.77  5.54
2337.9  10642.00  582.88  5.48
2340.3  10592.40  582.17  5.50
2342.7  10507.23  557.17  5.30
2345.0  10502.01  560.56  5.34
2347.4  10493.25  568.08  5.41
2349.7  10277.63  532.54  5.18
2352.1  10236.25  528.90  5.17
2354.4  10290.21  543.02  5.28
2356.8  10243.45  532.39  5.20
2359.2  10187.67  540.22  5.30
2361.5  10122.93  543.96  5.37
2363.8  10144.75  518.22  5.11
2366.2  10159.49  523.72  5.15
2368.5  10097.05  513.23  5.08
2370.9  10118.68  515.92  5.10
2373.2  10072.53  517.12  5.13
2375.5  9932.38  503.79  5.07
2377.9  9918.93  495.34  4.99
2380.2  9923.89  499.40  5.03
2382.5  9856.28  506.99  5.14
2384.8  9822.88  487.20  4.96
2387.2  9807.99  503.22  5.13
2389.5  9759.69  491.06  5.03
2391.8  9772.85  464.24  4.75
2394.1  9716.63  484.63  4.99
2396.4  9652.48  479.00  4.96
2398.7  9714.10  448.20  4.61
2401.0  9598.25  473.07  4.93
2403.3  9511.80  459.82  4.83
2405.6  9521.83  434.85  4.57
2407.9  9458.88  454.24  4.80
2410.2  9400.00  436.16  4.64
2412.5  9350.27  421.78  4.51
2414.8  9330.30  441.61  4.73
2417.1  9280.68  450.79  4.86
2419.4  9294.64  434.17  4.67
2421.7  9214.94  429.30  4.66
2424.0  9156.02  415.62  4.54
2426.2  9223.40  388.77  4.22
2428.5  9129.27  425.46  4.66
2430.8  9112.40  421.47  4.63
2433.1  9071.93  376.15  4.15
2435.4  8991.17  402.84  4.48
2437.6  8963.19  400.98  4.47
2439.9  8866.09  359.36  4.05
2442.2  8873.80  396.29  4.47
2444.4  8827.50  394.37  4.47
2446.7  8812.56  371.81  4.22
2448.9  8870.66  398.73  4.49
2451.2  8802.92  383.43  4.36
2453.4  8732.64  339.50  3.89
2455.7  8702.87  364.90  4.19
2457.9  8608.05  380.55  4.42
2460.2  8594.01  349.35  4.07
2462.4  8611.20  378.56  4.40
2464.7  8503.63  355.37  4.18
2466.9  8416.62  323.14  3.84
2469.2  8471.54  354.33  4.18
2471.4  8370.38  356.70  4.26
2473.6  8261.63  332.52  4.02
2475.9  8256.69  309.31  3.75
2478.1  8211.66  323.37  3.94
2480.3  8173.00  324.88  3.97
2482.5  8177.69  307.38  3.76
2484.8  8119.06  317.97  3.92
2487.0  8110.30  325.89  4.02
2489.2  8058.48  321.63  3.99
2491.4  7946.29  297.16  3.74
2493.6  7987.26  303.08  3.79
2495.8  7981.68  351.05  4.40
2498.0  7985.07  356.69  4.47
2500.2  7961.63  322.96  4.06
2502.4  8125.20  343.36  4.23
2504.6  8272.59  347.43  4.20
2506.8  8348.61  298.75  3.58
