/*** Spectra Vista SIG Data ***/
name= RS4.sig
comm= Averaged Ref/Tar of files: RD6S10,RD6S11,RD6S12
data=
346.4  350.35  71.13  20.30
347.9  381.21  72.17  18.93
349.5  410.28  73.63  17.95
351.1  433.68  73.84  17.03
352.6  475.96  78.85  16.57
354.2  499.06  79.41  15.91
355.7  540.48  86.44  15.99
357.3  582.54  90.39  15.52
358.8  588.91  90.40  15.35
360.4  636.67  97.09  15.25
361.9  668.64  97.05  14.51
363.5  692.50  96.95  14.00
365.1  712.57  100.79  14.14
366.6  747.47  100.81  13.49
368.2  792.37  104.76  13.22
369.7  840.74  106.22  12.63
371.3  898.85  111.07  12.36
372.8  941.22  113.32  12.04
374.4  986.23  117.04  11.87
375.9  1017.83  121.37  11.92
377.4  1052.18  121.21  11.52
379.0  1086.82  121.78  11.21
380.5  1123.29  124.13  11.05
382.1  1153.93  125.88  10.91
383.6  1194.95  123.80  10.36
385.2  1251.25  128.33  10.26
386.7  1299.60  129.78  9.99
388.3  1372.34  137.14  9.99
389.8  1424.66  139.45  9.79
391.3  1483.01  144.63  9.75
392.9  1530.61  151.92  9.93
394.4  1562.39  155.69  9.97
395.9  1621.81  158.88  9.80
397.5  1711.90  164.51  9.61
399.0  1784.48  165.21  9.26
400.6  1838.09  169.04  9.20
402.1  1856.31  166.84  8.99
403.6  1888.03  166.87  8.84
405.1  1944.54  167.72  8.63
406.7  2010.40  171.13  8.51
408.2  2079.37  174.64  8.40
409.7  2148.16  180.40  8.40
411.3  2213.53  186.81  8.44
412.8  2271.65  188.97  8.32
414.3  2341.03  196.13  8.38
415.8  2417.50  198.67  8.22
417.4  2490.79  205.44  8.25
418.9  2548.98  208.30  8.17
420.4  2593.45  211.36  8.15
421.9  2640.22  211.83  8.02
423.5  2679.41  214.82  8.02
425.0  2722.85  215.46  7.91
426.5  2778.88  215.57  7.76
428.0  2849.90  218.25  7.66
429.5  2939.79  223.57  7.61
431.1  3042.79  232.33  7.64
432.6  3149.06  240.31  7.63
434.1  3259.99  246.40  7.56
435.6  3346.58  252.20  7.54
437.1  3441.75  257.40  7.48
438.6  3531.11  264.10  7.48
440.1  3611.12  268.83  7.44
441.6  3703.62  275.41  7.44
443.1  3787.76  279.59  7.38
444.7  3873.68  285.78  7.38
446.2  3941.61  292.18  7.41
447.7  4009.71  296.73  7.40
449.2  4084.56  297.50  7.28
450.7  4145.44  295.91  7.14
452.2  4210.01  300.12  7.13
453.7  4291.20  304.71  7.10
455.2  4393.26  310.89  7.08
456.7  4515.28  318.21  7.05
458.2  4654.47  328.76  7.06
459.7  4795.00  338.10  7.05
461.2  4934.06  345.94  7.01
462.7  5054.96  354.78  7.02
464.2  5177.07  365.02  7.05
465.7  5301.12  372.50  7.03
467.2  5404.44  382.31  7.07
468.7  5508.00  391.07  7.10
470.2  5586.81  402.37  7.20
471.7  5702.38  411.51  7.22
473.2  5885.72  417.15  7.09
474.6  6027.25  417.90  6.93
476.1  6074.86  420.61  6.92
477.6  6093.70  422.56  6.93
479.1  6122.60  424.79  6.94
480.6  6163.05  424.99  6.90
482.1  6243.66  427.35  6.84
483.6  6332.42  432.92  6.84
485.1  6458.38  440.18  6.82
486.6  6604.00  446.91  6.77
488.0  6753.50  457.28  6.77
489.5  6913.82  468.35  6.77
491.0  7075.65  479.67  6.78
492.5  7238.97  490.00  6.77
494.0  7404.10  501.18  6.77
495.4  7549.58  511.83  6.78
496.9  7695.36  520.48  6.76
498.4  7836.28  531.45  6.78
499.9  7979.51  541.12  6.78
501.4  8103.78  551.07  6.80
502.8  8223.51  559.99  6.81
504.3  8333.10  568.80  6.83
505.8  8444.88  577.25  6.84
507.2  8514.20  581.22  6.83
508.7  8565.01  586.36  6.85
510.2  8590.79  590.98  6.88
511.6  8618.22  591.01  6.86
513.1  8670.26  594.29  6.85
514.6  8732.77  596.26  6.83
516.0  8783.27  600.35  6.84
517.5  8880.96  604.58  6.81
519.0  8994.65  612.77  6.81
520.5  9112.66  621.34  6.82
521.9  9263.01  632.42  6.83
523.4  9434.43  645.45  6.84
524.8  9608.27  657.14  6.84
526.3  9802.81  673.74  6.87
527.8  10000.35  688.63  6.89
529.2  10181.33  701.44  6.89
530.7  10383.39  717.44  6.91
532.1  10567.68  731.95  6.93
533.6  10773.42  747.50  6.94
535.0  10980.59  764.03  6.96
536.5  11186.70  778.19  6.96
538.0  11401.56  798.56  7.00
539.4  11601.83  817.37  7.05
540.9  11838.18  836.15  7.06
542.3  12056.36  847.38  7.03
543.8  12205.88  854.75  7.00
545.2  12241.58  862.34  7.04
546.6  12248.30  863.91  7.05
548.1  12260.70  870.07  7.10
549.5  12261.13  870.21  7.10
551.0  12260.01  872.76  7.12
552.4  12274.54  876.62  7.14
553.9  12279.40  878.05  7.15
555.3  12300.80  883.12  7.18
556.8  12360.66  889.04  7.19
558.2  12414.09  897.42  7.23
559.6  12499.51  907.34  7.26
561.1  12612.44  919.75  7.29
562.5  12742.28  934.47  7.33
564.0  12915.37  953.86  7.39
565.4  13070.62  972.12  7.44
566.8  13269.64  993.91  7.49
568.3  13461.39  1017.62  7.56
569.7  13659.35  1040.13  7.61
571.1  13859.91  1065.00  7.68
572.6  14064.03  1089.83  7.75
574.0  14250.23  1115.73  7.83
575.4  14437.41  1140.64  7.90
576.9  14612.77  1165.86  7.98
578.3  14771.90  1191.31  8.06
579.7  14927.19  1218.24  8.16
581.1  15049.34  1243.24  8.26
582.6  15179.87  1269.19  8.36
584.0  15306.40  1296.03  8.47
585.4  15471.50  1322.81  8.55
586.8  15703.41  1354.60  8.63
588.3  15959.97  1384.97  8.68
589.7  16164.72  1412.74  8.74
591.1  16308.26  1436.19  8.81
592.5  16380.50  1457.96  8.90
594.0  16416.90  1477.78  9.00
595.4  16426.30  1496.50  9.11
596.8  16438.21  1513.80  9.21
598.2  16446.40  1533.69  9.33
599.6  16446.15  1552.77  9.44
601.0  16488.64  1575.37  9.55
602.4  16524.83  1598.70  9.67
603.9  16595.00  1626.17  9.80
605.3  16677.56  1655.28  9.93
606.7  16748.10  1687.44  10.08
608.1  16880.08  1725.63  10.22
609.5  17023.96  1769.93  10.40
610.9  17200.20  1816.54  10.56
612.3  17363.60  1864.18  10.74
613.7  17583.26  1920.55  10.92
615.1  17730.09  1969.60  11.11
616.5  17885.32  2022.62  11.31
617.9  18120.27  2088.48  11.53
619.3  18343.55  2152.09  11.73
620.7  18613.68  2228.70  11.97
622.1  18877.69  2301.57  12.19
623.5  19168.37  2372.47  12.38
624.9  19495.88  2422.56  12.43
626.3  19705.80  2460.52  12.49
627.7  19502.63  2444.72  12.54
629.1  19316.59  2412.35  12.49
630.5  19234.56  2422.60  12.60
631.9  19243.16  2465.03  12.81
633.3  19227.78  2532.09  13.17
634.7  19307.14  2620.56  13.57
636.1  19335.07  2700.22  13.97
637.5  19378.14  2774.87  14.32
638.9  19457.31  2851.12  14.65
640.2  19514.53  2930.06  15.01
641.6  19531.98  3003.63  15.38
643.0  19504.65  3073.33  15.76
644.4  19507.28  3140.49  16.10
645.8  19449.04  3199.80  16.45
647.2  19526.59  3281.31  16.80
648.5  19579.91  3358.38  17.15
649.9  19492.88  3419.38  17.54
651.3  19428.45  3478.03  17.90
652.7  19344.30  3525.63  18.23
654.1  19217.52  3505.01  18.24
655.5  19076.42  3459.43  18.13
656.8  18936.77  3418.55  18.05
658.2  19052.33  3434.25  18.03
659.6  19274.42  3480.49  18.06
660.9  19463.87  3522.47  18.10
662.3  19650.11  3571.32  18.17
663.7  19826.10  3621.80  18.27
665.0  19986.79  3670.89  18.37
666.4  20146.14  3725.12  18.49
667.8  20346.56  3798.33  18.67
669.1  20529.76  3868.59  18.84
670.5  20738.52  3951.56  19.05
671.9  20872.26  4029.68  19.31
673.2  21059.41  4128.04  19.60
674.6  21230.21  4236.45  19.95
676.0  21420.32  4358.33  20.35
677.3  21614.12  4483.02  20.74
678.7  21817.38  4625.56  21.20
680.0  22089.50  4789.99  21.68
681.4  22373.47  4959.81  22.17
682.8  22657.86  5138.62  22.68
684.1  22942.53  5321.78  23.20
685.5  23200.94  5500.77  23.71
686.8  23448.72  5669.65  24.18
688.2  23672.40  5825.15  24.61
689.5  23749.65  5944.85  25.03
690.9  23825.77  6055.90  25.42
692.2  23869.28  6161.65  25.81
693.6  23926.69  6270.31  26.21
694.9  23920.11  6359.87  26.59
696.2  23942.14  6455.99  26.96
697.6  23961.85  6546.92  27.32
698.9  23992.32  6645.58  27.70
700.3  24038.01  6742.28  28.05
701.6  24084.68  6845.79  28.42
703.0  24137.54  6950.75  28.80
704.3  24141.49  7038.12  29.15
705.6  24144.66  7123.80  29.50
707.0  24151.61  7209.79  29.85
708.3  24094.31  7273.91  30.19
709.6  24038.25  7333.35  30.51
711.0  23936.43  7382.02  30.84
712.3  23827.16  7426.49  31.17
713.6  23789.01  7493.27  31.50
714.9  23716.29  7545.88  31.82
716.3  23686.39  7610.56  32.13
717.6  23672.15  7680.72  32.45
718.9  23614.96  7730.23  32.73
720.2  23494.56  7757.57  33.02
721.6  23399.74  7787.75  33.28
722.9  23270.63  7819.13  33.60
724.2  23091.17  7835.13  33.93
725.5  22957.02  7861.84  34.25
726.8  22832.78  7880.77  34.52
728.1  22750.67  7923.64  34.83
729.5  22685.44  7960.62  35.09
730.8  22628.18  8004.82  35.38
732.1  22547.20  8042.74  35.67
733.4  22493.78  8088.47  35.96
734.7  22430.29  8130.28  36.25
736.0  22412.65  8188.83  36.54
737.3  22354.35  8235.64  36.84
738.6  22392.88  8319.85  37.15
739.9  22486.41  8425.19  37.47
741.2  22557.99  8521.24  37.77
742.5  22690.46  8658.61  38.16
743.8  22954.18  8837.67  38.50
745.1  23356.68  9082.55  38.89
746.4  23838.13  9340.54  39.18
747.7  24340.83  9603.35  39.45
749.0  24845.90  9855.47  39.67
750.3  25109.11  10007.35  39.86
751.6  25056.94  10040.24  40.07
752.9  24812.33  9995.96  40.29
754.2  24511.78  9950.10  40.59
755.4  24190.11  9910.85  40.97
756.7  24095.29  9955.51  41.32
758.0  24119.44  10053.50  41.68
759.3  24282.67  10206.96  42.03
760.6  24509.10  10385.15  42.37
761.9  24709.31  10557.31  42.73
763.1  24854.26  10692.35  43.02
764.4  25021.13  10840.89  43.33
765.7  25148.50  10971.13  43.63
767.0  25255.87  11090.46  43.91
768.2  25351.20  11208.51  44.21
769.5  25424.49  11312.84  44.50
770.8  25570.26  11443.73  44.75
772.0  25587.81  11533.54  45.07
773.3  25669.17  11632.27  45.32
774.6  25760.75  11745.14  45.59
775.8  25826.13  11847.63  45.87
777.1  25851.30  11937.31  46.18
778.4  25836.83  11995.44  46.43
779.6  25861.37  12072.44  46.68
780.9  25820.00  12127.20  46.97
782.1  25728.02  12158.04  47.26
783.4  25750.40  12229.01  47.49
784.6  25767.74  12311.28  47.78
785.9  25975.04  12496.92  48.11
787.1  26352.59  12756.70  48.41
788.4  26662.70  12960.97  48.61
789.6  26677.46  12971.09  48.62
790.9  26422.83  12871.74  48.71
792.1  26144.60  12793.41  48.93
793.4  25865.12  12730.80  49.22
794.6  25676.57  12707.90  49.49
795.8  25513.36  12686.30  49.72
797.1  25350.08  12661.47  49.95
798.3  25228.50  12668.70  50.22
799.5  25169.97  12697.37  50.45
800.8  25099.23  12717.06  50.67
802.0  25011.42  12732.84  50.91
803.2  24918.76  12734.95  51.11
804.5  24860.18  12752.85  51.30
805.7  24781.04  12763.40  51.50
806.9  24699.71  12774.38  51.72
808.1  24647.73  12797.85  51.92
809.4  24609.13  12831.14  52.14
810.6  24558.63  12854.66  52.34
811.8  24538.32  12900.55  52.57
813.0  24560.28  12959.36  52.77
814.2  24583.06  13017.87  52.95
815.4  24644.79  13093.08  53.13
816.6  24675.27  13142.77  53.26
817.9  24704.84  13185.72  53.37
819.1  24672.89  13186.64  53.45
820.3  24583.02  13168.85  53.57
821.5  24511.70  13162.23  53.70
822.7  24474.49  13166.78  53.80
823.9  24466.74  13187.78  53.90
825.1  24483.13  13202.82  53.93
826.3  24493.16  13223.22  53.99
827.5  24511.03  13237.47  54.01
828.7  24560.16  13264.13  54.01
829.9  24556.61  13270.92  54.04
831.0  24631.50  13305.90  54.02
832.2  24684.15  13342.08  54.05
833.4  24732.69  13371.90  54.07
834.6  24771.09  13411.57  54.14
835.8  24806.25  13455.86  54.24
837.0  24848.21  13503.15  54.34
838.1  24942.61  13581.50  54.45
839.3  24987.97  13631.78  54.55
840.5  25056.73  13703.76  54.69
841.7  25139.84  13775.88  54.80
842.9  25202.72  13850.29  54.96
844.0  25272.39  13909.22  55.04
845.2  25356.92  13993.01  55.18
846.4  25406.55  14053.74  55.32
847.5  25535.27  14147.06  55.40
848.7  25649.51  14232.50  55.49
849.9  25759.43  14307.30  55.54
851.0  25787.85  14345.48  55.63
852.2  25836.49  14383.38  55.67
853.3  25835.02  14395.90  55.72
854.5  25803.13  14401.14  55.81
855.6  25784.28  14422.96  55.94
856.8  25811.14  14456.75  56.01
857.9  25796.36  14466.16  56.08
859.1  25866.40  14533.21  56.19
860.2  25870.46  14558.71  56.28
861.4  25883.89  14593.04  56.38
862.5  25913.95  14632.70  56.47
863.7  25967.63  14681.02  56.54
864.8  25978.23  14699.60  56.58
865.9  25934.02  14701.45  56.69
867.1  25972.57  14723.95  56.69
868.2  25960.64  14745.79  56.80
869.3  25983.57  14766.12  56.83
870.5  25945.69  14753.22  56.86
871.6  25952.82  14767.08  56.90
872.7  25988.86  14799.34  56.94
873.9  26010.48  14821.40  56.98
875.0  25998.57  14806.25  56.95
876.1  25976.68  14809.34  57.01
877.2  25992.15  14817.00  57.01
878.3  25997.76  14819.68  57.00
879.4  26016.59  14819.31  56.96
880.5  26032.32  14825.62  56.95
881.7  26038.68  14812.29  56.89
882.8  26051.76  14815.50  56.87
883.9  26088.59  14814.77  56.79
885.0  26049.66  14784.54  56.76
886.1  26068.54  14755.62  56.60
887.2  25979.14  14678.71  56.50
888.3  25929.87  14622.41  56.39
889.4  25867.81  14559.75  56.29
890.5  25830.84  14522.66  56.22
891.6  25777.28  14485.32  56.19
892.7  25812.52  14457.30  56.01
893.8  25792.32  14457.26  56.05
894.9  25833.34  14442.44  55.91
896.0  25797.95  14422.14  55.90
897.0  25823.30  14405.78  55.79
898.1  25837.83  14390.67  55.70
899.2  25853.12  14372.39  55.59
900.3  25827.20  14315.99  55.43
901.4  25755.93  14264.44  55.38
902.4  25796.28  14264.35  55.30
903.5  25760.57  14208.64  55.16
904.6  25773.48  14189.50  55.05
905.7  25786.56  14157.10  54.90
906.7  25778.44  14127.48  54.80
907.8  25791.16  14119.44  54.75
908.9  25756.23  14062.52  54.60
909.9  25738.83  14031.32  54.51
911.0  25715.27  13980.26  54.37
912.1  25708.69  13913.90  54.12
913.1  25683.06  13837.93  53.88
914.2  25568.28  13756.21  53.80
915.2  25594.38  13711.61  53.57
916.3  25582.28  13672.02  53.44
917.3  25579.53  13606.72  53.19
918.4  25529.08  13496.12  52.87
919.4  25526.52  13417.39  52.56
920.5  25540.93  13331.90  52.20
921.5  25532.64  13257.92  51.93
922.6  25509.72  13155.79  51.57
923.6  25552.64  13086.73  51.21
924.7  25558.13  12991.73  50.83
925.7  25559.01  12882.13  50.40
926.7  25571.07  12783.71  49.99
927.8  25622.74  12683.55  49.50
928.8  25737.00  12595.46  48.94
929.9  25798.01  12501.07  48.46
930.9  25912.02  12442.79  48.02
931.9  26063.45  12360.53  47.42
932.9  26272.00  12322.70  46.90
934.0  26311.65  12194.79  46.35
935.0  26328.00  12080.21  45.88
936.0  26313.67  11926.34  45.32
937.0  26305.79  11777.64  44.77
938.1  26273.03  11649.56  44.34
939.1  26282.27  11508.76  43.79
940.1  26307.38  11368.70  43.21
941.1  26474.98  11306.00  42.70
942.1  26613.43  11216.09  42.14
943.1  26709.35  11105.64  41.58
944.1  26891.46  11024.02  40.99
945.2  26931.87  10891.67  40.44
946.2  27005.05  10767.72  39.87
947.2  27050.94  10630.45  39.30
948.2  27161.01  10507.24  38.69
949.2  27258.97  10364.90  38.02
950.2  27257.00  10233.08  37.54
951.2  27381.90  10079.78  36.81
952.2  27427.92  9937.78  36.23
953.2  27549.11  9814.96  35.63
954.2  27670.16  9697.25  35.05
955.2  27683.23  9581.08  34.61
956.2  27678.04  9460.84  34.18
957.2  27683.31  9362.94  33.82
958.2  27771.67  9280.06  33.42
959.2  27855.45  9235.20  33.15
960.1  27895.78  9170.38  32.87
961.1  27947.74  9138.94  32.70
962.1  27921.09  9096.25  32.58
963.1  28038.72  9067.74  32.34
964.1  28081.62  9031.20  32.16
965.1  28159.91  9054.14  32.15
966.1  28230.04  9033.61  32.00
967.0  28291.66  9037.42  31.94
968.0  28354.15  9016.23  31.80
969.0  28355.00  9023.67  31.82
970.0  28440.42  9021.77  31.72
971.0  28447.07  9003.11  31.65
971.9  28529.94  9018.74  31.61
972.9  28619.85  9021.98  31.52
973.9  28640.46  9025.62  31.51
974.9  28629.25  9049.32  31.61
975.8  28737.28  9038.88  31.45
976.8  28722.61  9065.24  31.56
977.8  28846.97  9083.64  31.49
978.8  28789.28  9095.89  31.59
979.7  28914.30  9167.50  31.71
980.7  28909.16  9148.60  31.65
981.7  29108.19  9263.61  31.82
982.6  29310.11  9336.34  31.85
983.6  29612.62  9490.33  32.05
984.6  29886.86  9640.27  32.26
985.5  30220.02  9745.58  32.25
986.5  30590.42  9980.75  32.63
987.5  31346.01  10289.80  32.83
988.4  31956.65  10456.60  32.72
989.4  32957.10  10769.32  32.68
990.4  33646.09  11045.06  32.83
991.3  34254.92  11327.42  33.07
992.3  35605.12  11529.28  32.38
993.2  35791.00  12027.57  33.61
994.2  37066.33  12313.28  33.22
995.2  37769.29  12496.51  33.09
996.1  38356.88  12775.44  33.31
997.1  37945.80  12507.46  32.96
998.0  38542.50  12562.00  32.59
999.0  38301.25  12694.81  33.14
1000.0  38064.02  12700.51  33.37
1000.9  38955.51  12775.31  32.79
1001.9  38313.61  12433.34  32.45
1002.8  38469.11  12962.42  33.70
1003.8  38840.71  12830.53  33.03
1004.8  39018.78  12778.08  32.75
961.5  34418.44  9506.97  27.62
965.5  34203.70  9211.97  26.93
969.5  33124.73  9000.82  27.17
973.4  31599.68  8865.34  28.06
977.4  30418.99  8692.55  28.58
981.4  29806.10  8685.47  29.14
985.3  29606.90  8802.52  29.73
989.3  29665.19  9034.82  30.46
993.3  29713.32  9267.73  31.19
997.2  29668.74  9442.94  31.83
1001.2  29627.00  9616.14  32.46
1005.2  29568.23  9790.05  33.11
1009.1  29600.49  10024.38  33.87
1013.1  29702.49  10297.42  34.67
1017.1  29789.49  10586.94  35.54
1021.0  29789.99  10862.63  36.46
1025.0  29760.59  11146.47  37.45
1029.0  29636.30  11398.58  38.46
1032.9  29533.53  11635.39  39.40
1036.9  29509.70  11902.65  40.33
1040.9  29556.91  12206.77  41.30
1044.8  29679.34  12529.95  42.22
1048.8  29786.37  12826.87  43.06
1052.7  29868.84  13076.76  43.78
1056.7  29898.31  13261.79  44.36
1060.7  29913.73  13414.72  44.84
1064.6  29918.21  13525.51  45.21
1068.6  29859.11  13545.29  45.36
1072.5  29814.52  13516.10  45.33
1076.5  29798.83  13456.54  45.16
1080.4  29797.49  13361.57  44.84
1084.4  29858.05  13262.20  44.42
1088.3  29928.60  13123.03  43.85
1092.3  29919.24  12895.60  43.10
1096.2  29930.07  12653.60  42.28
1100.2  29956.02  12423.41  41.47
1104.1  29873.92  12152.36  40.68
1108.1  29858.25  11891.56  39.83
1112.0  29809.22  11598.48  38.91
1116.0  29674.06  11261.92  37.95
1119.9  29580.84  10888.07  36.81
1123.9  29636.88  10480.46  35.36
1127.8  29621.76  9937.92  33.55
1131.8  29615.13  9295.13  31.39
1135.7  29658.37  8614.13  29.04
1139.6  29649.41  7940.88  26.78
1143.6  29635.32  7362.67  24.84
1147.5  29635.02  6934.45  23.40
1151.4  29535.85  6609.29  22.38
1155.4  29547.88  6405.90  21.68
1159.3  29582.50  6290.28  21.26
1163.2  29498.44  6178.68  20.95
1167.2  29505.90  6117.12  20.73
1171.1  29517.01  6078.24  20.59
1175.0  29484.53  6029.11  20.45
1179.0  29486.15  5989.79  20.31
1182.9  29537.81  5964.67  20.19
1186.8  29538.86  5932.63  20.08
1190.7  29410.97  5865.49  19.94
1194.7  29255.48  5806.59  19.85
1198.6  29133.72  5770.38  19.81
1202.5  29044.69  5745.15  19.78
1206.4  28972.03  5732.29  19.79
1210.3  28920.11  5728.75  19.81
1214.2  28863.76  5732.34  19.86
1218.2  28763.18  5730.94  19.92
1222.1  28692.28  5733.44  19.98
1226.0  28656.56  5749.81  20.06
1229.9  28600.92  5765.34  20.16
1233.8  28545.33  5768.35  20.21
1237.7  28520.81  5779.05  20.26
1241.6  28465.46  5788.02  20.33
1245.5  28370.21  5785.22  20.39
1249.4  28299.76  5786.34  20.45
1253.3  28232.22  5780.64  20.48
1257.2  28191.00  5774.16  20.48
1261.1  28130.65  5762.01  20.48
1265.0  28057.45  5749.58  20.49
1268.9  27949.80  5718.87  20.46
1272.8  27989.85  5705.70  20.38
1276.7  28109.94  5710.02  20.31
1280.6  28175.48  5682.64  20.17
1284.5  28132.96  5619.48  19.97
1288.4  28112.11  5564.00  19.79
1292.3  28036.25  5488.08  19.57
1296.2  27954.20  5396.34  19.30
1300.1  27848.52  5297.98  19.02
1303.9  27706.57  5185.57  18.72
1307.8  27559.31  5073.57  18.41
1311.7  27397.23  4950.54  18.07
1315.6  27238.78  4823.56  17.71
1319.5  27066.08  4695.53  17.35
1323.3  26913.00  4574.51  17.00
1327.2  26776.06  4461.43  16.66
1331.1  26621.95  4342.90  16.31
1335.0  26429.02  4217.77  15.96
1338.8  26290.11  4109.18  15.63
1342.7  26169.42  4013.04  15.33
1346.5  25929.13  3916.70  15.11
1350.4  25728.90  3834.45  14.90
1354.3  25457.85  3737.15  14.68
1358.1  25158.95  3630.77  14.43
1362.0  24980.59  3543.42  14.18
1365.8  24927.82  3475.91  13.94
1369.7  24996.19  3427.00  13.71
1373.5  24961.93  3370.53  13.50
1377.4  24802.90  3271.26  13.19
1381.2  24660.90  3129.58  12.69
1385.1  24643.85  2994.47  12.15
1389.0  24592.75  2878.67  11.71
1392.8  24461.78  2758.39  11.28
1396.6  24365.22  2642.60  10.85
1400.5  24231.60  2537.63  10.47
1404.3  24125.27  2448.27  10.15
1408.2  24097.32  2371.52  9.84
1412.0  24070.61  2316.14  9.62
1415.8  24101.54  2281.18  9.46
1419.6  24084.23  2245.49  9.32
1423.5  24070.46  2216.84  9.21
1427.3  24053.34  2193.04  9.12
1431.1  24042.83  2183.18  9.08
1434.9  23983.10  2163.63  9.02
1438.8  23944.05  2148.32  8.97
1442.6  23927.04  2142.59  8.95
1446.4  23856.75  2129.82  8.93
1450.2  23800.39  2119.52  8.91
1454.0  23730.24  2112.80  8.90
1457.8  23714.21  2110.10  8.90
1461.6  23699.02  2110.78  8.91
1465.4  23623.88  2110.78  8.93
1469.2  23507.58  2102.10  8.94
1473.0  23416.67  2100.16  8.97
1476.8  23385.95  2115.50  9.05
1480.7  23341.52  2130.86  9.13
1484.4  23269.68  2140.16  9.20
1488.2  23205.84  2159.92  9.31
1492.0  23119.76  2176.98  9.42
1495.8  23050.30  2188.55  9.49
1499.6  22974.60  2202.27  9.59
1503.4  22886.86  2217.07  9.69
1507.2  22817.82  2232.82  9.79
1510.9  22736.47  2240.69  9.86
1514.7  22640.13  2242.07  9.90
1518.5  22563.41  2241.34  9.93
1522.3  22469.97  2241.08  9.97
1526.0  22400.45  2249.25  10.04
1529.8  22366.84  2251.93  10.07
1533.6  22289.14  2248.99  10.09
1537.3  22206.85  2249.74  10.13
1541.1  22117.21  2262.02  10.23
1544.8  22039.20  2277.60  10.33
1548.6  21965.35  2283.00  10.39
1552.4  21895.60  2284.06  10.43
1556.1  21841.83  2279.86  10.44
1559.9  21787.79  2270.31  10.42
1563.6  21716.01  2270.34  10.45
1567.3  21641.45  2284.84  10.56
1571.1  21503.94  2292.48  10.66
1574.8  21413.78  2297.88  10.73
1578.6  21355.88  2306.81  10.80
1582.3  21274.05  2304.59  10.83
1586.0  21183.04  2294.57  10.83
1589.8  21100.62  2289.71  10.85
1593.5  21000.69  2277.10  10.84
1597.2  20929.52  2268.15  10.84
1600.9  20843.62  2265.23  10.87
1604.7  20745.10  2265.23  10.92
1608.4  20669.95  2263.24  10.95
1612.1  20567.28  2256.42  10.97
1615.8  20477.47  2256.83  11.02
1619.5  20422.34  2256.56  11.05
1623.2  20328.29  2249.04  11.06
1626.9  20221.28  2241.97  11.09
1630.6  20112.62  2234.47  11.11
1634.3  20025.88  2230.20  11.14
1638.0  19934.15  2220.53  11.14
1641.7  19830.91  2204.24  11.12
1645.4  19716.98  2191.31  11.11
1649.1  19602.77  2176.23  11.10
1652.8  19509.95  2155.67  11.05
1656.4  19395.62  2137.49  11.02
1660.1  19295.18  2128.95  11.03
1663.8  19185.10  2107.62  10.99
1667.5  19083.74  2088.39  10.94
1671.1  18996.35  2074.37  10.92
1674.8  18876.30  2059.26  10.91
1678.5  18838.56  2052.67  10.90
1682.1  18849.73  2049.94  10.88
1685.8  18859.30  2044.76  10.84
1689.5  18795.30  2033.76  10.82
1693.1  18706.41  2022.40  10.81
1696.8  18615.25  2004.50  10.77
1700.4  18529.58  1982.62  10.70
1704.0  18456.67  1963.03  10.64
1707.7  18296.86  1938.26  10.59
1711.3  18114.51  1904.82  10.52
1715.0  17992.28  1874.54  10.42
1718.6  17886.14  1856.90  10.38
1722.2  17799.94  1838.91  10.33
1725.9  17706.59  1809.75  10.22
1729.5  17604.49  1790.98  10.17
1733.1  17541.49  1781.66  10.16
1736.7  17471.92  1770.46  10.13
1740.3  17366.15  1756.33  10.11
1744.0  17315.89  1738.70  10.04
1747.5  17227.16  1719.93  9.98
1751.2  17088.52  1698.58  9.94
1754.8  16976.43  1678.25  9.89
1758.4  16893.02  1664.83  9.86
1762.0  16789.89  1643.63  9.79
1765.5  16699.11  1633.28  9.78
1769.1  16665.60  1636.80  9.82
1772.7  16620.17  1624.49  9.77
1776.3  16550.18  1606.95  9.71
1779.9  16477.44  1598.71  9.70
1783.5  16434.96  1588.85  9.67
1787.0  16345.96  1571.87  9.62
1790.6  16243.66  1559.33  9.60
1794.2  16171.99  1553.34  9.61
1797.8  16109.35  1548.15  9.61
1801.3  16053.66  1536.83  9.57
1804.9  15954.75  1525.13  9.56
1808.4  15901.90  1515.99  9.53
1812.0  15801.30  1507.73  9.54
1815.5  15695.88  1502.13  9.57
1819.1  15574.16  1481.63  9.51
1822.6  15471.85  1474.75  9.53
1826.2  15387.58  1463.11  9.51
1829.7  15274.18  1448.97  9.49
1833.2  15120.13  1439.57  9.52
1836.8  14969.50  1427.95  9.54
1840.3  14877.77  1418.03  9.53
1843.8  14800.45  1416.59  9.57
1847.3  14738.02  1431.74  9.71
1850.8  14668.42  1450.18  9.89
1854.3  14577.15  1461.65  10.03
1857.8  14534.00  1456.00  10.02
1861.3  14522.25  1420.14  9.78
1864.8  14459.04  1365.58  9.44
1868.3  14308.06  1287.82  9.00
1871.8  14215.68  1208.32  8.50
1875.3  14201.46  1142.20  8.04
1878.8  14176.42  1082.76  7.64
1882.3  14122.90  1062.68  7.52
1885.8  14014.10  1022.61  7.30
1889.3  13904.45  992.58  7.14
1892.7  13776.82  979.84  7.11
1896.2  13660.15  951.84  6.97
1899.7  13554.20  953.86  7.04
1903.1  13466.38  970.20  7.20
1906.6  13511.57  1000.26  7.40
1910.0  13676.29  1091.04  7.98
1913.5  13920.50  1160.04  8.33
1917.0  14289.98  1280.07  8.96
1920.4  14838.23  1371.34  9.24
1923.8  14900.33  1246.21  8.36
1871.2  12934.73  908.10  7.02
1873.9  13036.34  962.87  7.39
1876.7  13080.35  975.20  7.46
1879.5  13184.92  914.31  6.93
1882.3  12973.16  863.08  6.65
1885.1  12955.86  836.14  6.45
1887.8  13054.47  794.43  6.09
1890.6  12965.86  821.25  6.33
1893.4  12899.33  789.55  6.12
1896.2  12776.85  751.85  5.88
1898.9  12763.16  770.80  6.04
1901.7  12667.81  730.87  5.77
1904.5  12785.93  737.07  5.76
1907.2  12706.25  780.58  6.14
1910.0  12637.10  763.79  6.04
1912.7  12646.53  733.94  5.80
1915.5  12573.30  735.10  5.85
1918.2  12524.17  716.86  5.72
1921.0  12429.58  714.03  5.74
1923.7  12476.24  717.03  5.75
1926.5  12456.75  709.96  5.70
1929.2  12429.04  699.05  5.62
1932.0  12425.12  693.09  5.58
1934.7  12406.61  703.50  5.67
1937.4  12332.23  688.57  5.58
1940.2  12287.19  692.53  5.64
1942.9  12341.39  710.50  5.76
1945.6  12357.84  704.67  5.70
1948.3  12310.10  704.96  5.73
1951.1  12286.82  702.33  5.72
1953.8  12285.00  691.00  5.62
1956.5  12213.61  691.85  5.66
1959.2  12244.05  703.65  5.75
1961.9  12277.60  700.30  5.70
1964.6  12227.25  705.08  5.77
1967.3  12243.43  724.86  5.92
1970.0  12130.08  705.47  5.82
1972.8  12063.78  698.16  5.79
1975.5  12116.40  701.43  5.79
1978.2  12077.12  692.04  5.73
1980.9  11995.23  711.26  5.93
1983.5  11947.43  725.14  6.07
1986.2  11960.10  726.53  6.07
1988.9  11951.37  722.65  6.05
1991.6  11858.95  714.51  6.03
1994.3  11764.18  705.71  6.00
1997.0  11766.88  716.03  6.09
1999.7  11773.83  719.83  6.11
2002.3  11759.81  708.62  6.03
2005.0  11690.77  725.88  6.21
2007.7  11638.67  714.76  6.14
2010.4  11594.16  704.24  6.07
2013.0  11562.08  730.22  6.32
2015.7  11497.38  718.94  6.25
2018.4  11428.93  704.44  6.16
2021.0  11415.50  710.22  6.22
2023.7  11337.76  709.49  6.26
2026.4  11289.20  708.86  6.28
2029.0  11241.04  719.79  6.40
2031.7  11159.63  700.41  6.28
2034.3  11170.90  691.96  6.19
2037.0  11088.29  716.89  6.47
2039.6  11036.71  716.46  6.49
2042.3  11025.52  707.70  6.42
2044.9  10984.38  713.41  6.49
2047.5  10945.11  714.34  6.53
2050.2  10866.80  702.80  6.47
2052.8  10875.20  700.93  6.45
2055.4  10794.82  697.62  6.46
2058.1  10693.20  690.67  6.46
2060.7  10690.88  704.34  6.59
2063.3  10636.71  703.17  6.61
2065.9  10588.79  683.03  6.45
2068.6  10527.38  697.92  6.63
2071.2  10509.93  697.50  6.64
2073.8  10479.76  679.06  6.48
2076.4  10429.57  692.31  6.64
2079.0  10413.86  693.13  6.66
2081.6  10426.21  692.08  6.64
2084.2  10409.13  702.59  6.75
2086.8  10317.76  691.06  6.70
2089.4  10237.53  684.58  6.69
2092.1  10185.83  686.61  6.74
2094.7  10161.53  687.42  6.76
2097.2  10134.83  679.06  6.70
2099.8  10154.06  683.20  6.73
2102.4  10079.62  697.56  6.92
2105.0  9975.00  681.15  6.83
2107.6  9943.53  675.06  6.79
2110.2  9903.21  682.95  6.90
2112.8  9887.09  672.88  6.81
2115.3  9921.47  678.37  6.84
2117.9  9932.41  692.53  6.97
2120.5  9899.34  692.80  7.00
2123.1  9860.18  695.18  7.05
2125.6  9830.42  682.30  6.94
2128.2  9760.43  661.43  6.78
2130.8  9696.38  670.80  6.92
2133.3  9680.00  678.58  7.01
2135.9  9631.02  662.86  6.88
2138.4  9558.99  662.02  6.93
2141.0  9487.88  654.27  6.90
2143.6  9445.83  652.78  6.91
2146.1  9343.90  660.15  7.07
2148.7  9250.50  660.75  7.14
2151.2  9289.87  649.24  6.99
2153.8  9283.27  647.53  6.98
2156.3  9196.68  644.81  7.01
2158.8  9167.15  638.90  6.97
2161.4  9136.89  646.67  7.08
2163.9  9080.87  634.88  6.99
2166.4  9038.53  613.01  6.78
2169.0  9026.70  631.74  7.00
2171.5  8964.61  640.61  7.15
2174.0  8877.40  632.69  7.13
2176.5  8859.37  638.86  7.21
2179.1  8821.17  629.44  7.14
2181.6  8799.54  618.47  7.03
2184.1  8784.16  622.16  7.08
2186.6  8784.20  622.44  7.09
2189.1  8744.04  614.18  7.02
2191.6  8708.93  613.05  7.04
2194.1  8706.09  599.01  6.88
2196.6  8712.45  606.87  6.97
2199.2  8755.72  636.04  7.26
2201.7  8703.45  616.05  7.08
2204.1  8678.72  594.95  6.86
2206.6  8675.98  610.48  7.04
2209.1  8675.22  624.53  7.20
2211.6  8663.97  628.10  7.25
2214.1  8610.78  622.21  7.23
2216.6  8633.61  611.53  7.08
2219.1  8660.20  616.60  7.12
2221.6  8580.23  617.95  7.20
2224.0  8522.97  609.60  7.15
2226.5  8511.79  599.92  7.05
2229.0  8530.74  615.41  7.21
2231.5  8441.32  603.86  7.15
2233.9  8443.24  587.51  6.96
2236.4  8476.56  602.16  7.10
2238.9  8385.50  587.71  7.01
2241.3  8391.31  571.34  6.81
2243.8  8383.54  586.89  7.00
2246.2  8253.42  572.45  6.94
2248.7  8237.84  546.36  6.63
2251.2  8236.26  567.53  6.89
2253.6  8194.56  574.72  7.01
2256.1  8190.72  572.16  6.99
2258.5  8190.43  576.25  7.04
2260.9  8134.04  553.52  6.80
2263.4  8110.40  541.20  6.67
2265.8  8131.85  543.66  6.69
2268.3  8069.96  527.22  6.53
2270.7  8098.88  528.41  6.52
2273.1  8065.01  548.41  6.80
2275.6  8029.44  528.64  6.58
2278.0  8032.57  518.85  6.46
2280.4  8050.71  547.75  6.80
2282.8  7960.15  525.26  6.60
2285.3  7901.09  518.45  6.56
2287.7  7985.73  538.89  6.75
2290.1  7946.20  516.57  6.50
2292.5  7920.79  503.98  6.36
2294.9  7927.04  503.18  6.35
2297.3  7846.72  489.10  6.23
2299.7  7809.80  475.12  6.08
2302.1  7774.17  493.66  6.35
2304.5  7698.88  493.92  6.42
2306.9  7651.84  463.87  6.06
2309.3  7605.49  470.20  6.18
2311.7  7551.70  471.00  6.24
2314.1  7431.64  473.91  6.38
2316.5  7403.26  480.68  6.49
2318.9  7422.16  466.43  6.28
2321.3  7384.55  463.52  6.28
2323.7  7411.63  492.51  6.65
2326.1  7407.14  495.69  6.69
2328.4  7416.57  462.43  6.24
2330.8  7456.07  496.25  6.66
2333.2  7380.05  491.46  6.66
2335.6  7348.45  476.06  6.48
2337.9  7374.28  488.28  6.62
2340.3  7351.28  456.22  6.21
2342.7  7303.86  454.20  6.22
2345.0  7304.27  465.72  6.38
2347.4  7310.00  449.08  6.14
2349.7  7167.86  431.44  6.02
2352.1  7105.77  433.12  6.10
2354.4  7122.34  442.73  6.22
2356.8  7109.55  450.37  6.33
2359.2  7054.67  440.56  6.24
2361.5  7016.24  442.15  6.30
2363.8  7061.80  445.02  6.30
2366.2  7030.44  433.98  6.17
2368.5  6995.40  434.62  6.21
2370.9  6987.35  432.42  6.19
2373.2  6974.33  445.17  6.38
2375.5  6914.20  426.86  6.17
2377.9  6855.73  401.14  5.85
2380.2  6895.41  421.52  6.11
2382.5  6832.77  415.09  6.07
2384.8  6779.04  419.15  6.18
2387.2  6826.21  443.83  6.50
2389.5  6803.92  424.95  6.25
2391.8  6773.50  392.94  5.80
2394.1  6708.07  407.86  6.08
2396.4  6696.25  427.39  6.38
2398.7  6727.77  414.09  6.15
2401.0  6675.75  403.84  6.05
2403.3  6633.36  413.34  6.23
2405.6  6587.80  403.20  6.12
2407.9  6548.07  414.16  6.32
2410.2  6522.35  406.08  6.23
2412.5  6494.37  389.60  6.00
2414.8  6495.78  414.22  6.38
2417.1  6477.89  411.21  6.35
2419.4  6418.72  369.91  5.76
2421.7  6381.59  374.98  5.88
2424.0  6340.00  405.05  6.39
2426.2  6377.20  379.85  5.96
2428.5  6376.43  371.38  5.82
2430.8  6305.65  388.77  6.17
2433.1  6272.91  370.62  5.91
2435.4  6216.05  380.46  6.12
2437.6  6193.67  361.81  5.84
2439.9  6131.58  320.06  5.22
2442.2  6143.40  375.43  6.11
2444.4  6156.85  359.92  5.85
2446.7  6096.96  336.77  5.52
2448.9  6140.77  359.25  5.85
2451.2  6097.08  343.69  5.64
2453.4  6044.75  337.49  5.58
2455.7  6045.18  324.36  5.37
2457.9  5958.48  331.71  5.57
2460.2  5967.72  322.64  5.41
2462.4  5959.20  355.68  5.97
2464.7  5866.75  376.40  6.42
2466.9  5842.20  331.70  5.68
2469.2  5878.87  350.01  5.95
2471.4  5796.90  337.00  5.81
2473.6  5704.14  301.28  5.28
2475.9  5730.24  309.31  5.40
2478.1  5690.78  318.81  5.60
2480.3  5611.10  306.31  5.46
2482.5  5590.00  340.74  6.10
2484.8  5592.32  322.82  5.77
2487.0  5577.22  296.27  5.31
2489.2  5540.68  346.76  6.26
2491.4  5525.52  330.46  5.98
2493.6  5479.00  329.21  6.01
2495.8  5487.41  319.37  5.82
2498.0  5504.43  289.14  5.25
2500.2  5484.68  289.26  5.27
2502.4  5700.96  296.00  5.19
2504.6  5765.46  325.52  5.65
2506.8  5747.58  366.94  6.38
