/*** Spectra Vista SIG Data ***/
name= S4.sig
comm= Averaged Ref/Tar of files: RD3S10,RD3S11,RD3S12
data=
346.4  598.78  208.09  34.75
347.9  627.50  221.72  35.33
349.5  677.04  216.32  31.95
351.1  739.44  221.52  29.96
352.6  790.63  230.86  29.20
354.2  841.03  233.44  27.76
355.7  912.59  251.44  27.55
357.3  974.37  264.69  27.16
358.8  992.58  260.96  26.29
360.4  1062.29  276.71  26.05
361.9  1117.88  287.89  25.75
363.5  1149.55  289.70  25.20
365.1  1196.29  282.03  23.58
366.6  1260.16  293.47  23.29
368.2  1349.72  293.22  21.72
369.7  1403.95  299.30  21.32
371.3  1488.21  309.50  20.80
372.8  1577.00  323.15  20.49
374.4  1638.71  329.30  20.10
375.9  1688.10  328.79  19.48
377.4  1740.09  332.84  19.13
379.0  1788.57  337.35  18.86
380.5  1855.73  340.58  18.35
382.1  1905.98  340.81  17.88
383.6  1973.16  336.42  17.05
385.2  2065.25  345.58  16.73
386.7  2149.76  352.88  16.41
388.3  2271.83  364.15  16.03
389.8  2363.45  372.41  15.76
391.3  2453.59  387.12  15.78
392.9  2526.36  391.66  15.50
394.4  2602.50  407.54  15.66
395.9  2690.98  422.85  15.71
397.5  2829.48  443.59  15.68
399.0  2963.31  447.02  15.09
400.6  3033.76  441.48  14.55
402.1  3072.78  434.30  14.13
403.6  3116.75  425.96  13.67
405.1  3199.00  423.49  13.24
406.7  3304.00  433.07  13.11
408.2  3412.53  438.07  12.84
409.7  3521.28  453.97  12.89
411.3  3642.17  464.36  12.75
412.8  3732.75  475.58  12.74
414.3  3845.02  491.13  12.77
415.8  3965.00  509.17  12.84
417.4  4085.95  516.96  12.65
418.9  4192.21  526.24  12.55
420.4  4267.16  533.40  12.50
421.9  4346.32  534.82  12.31
423.5  4413.15  538.61  12.20
425.0  4492.75  537.90  11.97
426.5  4594.55  543.95  11.84
428.0  4712.54  551.44  11.70
429.5  4856.53  555.64  11.44
431.1  5025.20  571.47  11.37
432.6  5198.44  581.24  11.18
434.1  5370.75  597.40  11.12
435.6  5520.56  611.46  11.08
437.1  5670.60  629.20  11.10
438.6  5806.58  639.28  11.01
440.1  5943.54  646.96  10.89
441.6  6091.61  662.16  10.87
443.1  6230.93  675.68  10.84
444.7  6356.12  687.74  10.82
446.2  6474.98  693.25  10.71
447.7  6582.53  711.98  10.82
449.2  6691.68  715.68  10.70
450.7  6814.08  716.91  10.52
452.2  6930.56  728.36  10.51
453.7  7066.33  728.86  10.31
455.2  7233.85  742.53  10.26
456.7  7443.04  757.97  10.18
458.2  7673.27  777.06  10.13
459.7  7920.50  796.25  10.05
461.2  8156.07  821.31  10.07
462.7  8366.46  840.11  10.04
464.2  8568.06  858.27  10.02
465.7  8788.58  879.30  10.00
467.2  8970.50  894.49  9.97
468.7  9176.00  915.33  9.98
470.2  9305.26  933.47  10.03
471.7  9490.50  956.34  10.08
473.2  9788.42  990.69  10.12
474.6  10042.30  1010.40  10.06
476.1  10127.24  1004.88  9.92
477.6  10169.21  991.80  9.75
479.1  10224.56  990.40  9.69
480.6  10293.47  988.86  9.61
482.1  10426.95  995.81  9.55
483.6  10590.11  1004.17  9.48
485.1  10796.39  1016.56  9.42
486.6  11041.55  1037.38  9.40
488.0  11290.50  1053.00  9.33
489.5  11568.25  1076.13  9.30
491.0  11840.59  1098.65  9.28
492.5  12119.22  1121.58  9.25
494.0  12409.65  1145.05  9.23
495.4  12660.45  1166.00  9.21
496.9  12912.44  1187.93  9.20
498.4  13155.80  1203.93  9.15
499.9  13408.52  1230.30  9.18
501.4  13645.90  1251.17  9.17
502.8  13864.50  1270.29  9.16
504.3  14081.40  1291.80  9.17
505.8  14291.05  1309.10  9.16
507.2  14436.37  1320.97  9.15
508.7  14548.87  1329.75  9.14
510.2  14651.50  1338.46  9.14
511.6  14718.08  1350.29  9.17
513.1  14838.45  1357.62  9.15
514.6  14986.45  1367.08  9.12
516.0  15112.04  1373.12  9.09
517.5  15305.31  1383.42  9.04
519.0  15537.89  1402.08  9.02
520.5  15768.60  1419.69  9.00
521.9  16045.99  1435.66  8.95
523.4  16363.11  1461.56  8.93
524.8  16675.79  1490.43  8.94
526.3  17027.53  1518.71  8.92
527.8  17380.80  1550.64  8.92
529.2  17706.86  1580.79  8.93
530.7  18056.71  1611.85  8.93
532.1  18377.28  1638.12  8.91
533.6  18738.23  1675.23  8.94
535.0  19114.67  1705.94  8.92
536.5  19476.07  1741.36  8.94
538.0  19846.24  1776.21  8.95
539.4  20198.95  1806.29  8.94
540.9  20626.19  1844.36  8.94
542.3  20984.92  1881.70  8.97
543.8  21250.33  1904.52  8.96
545.2  21329.19  1914.18  8.97
546.6  21331.64  1914.65  8.98
548.1  21362.06  1913.95  8.96
549.5  21376.46  1914.95  8.96
551.0  21386.66  1916.47  8.96
552.4  21443.54  1922.74  8.97
553.9  21463.89  1929.02  8.99
555.3  21521.57  1937.52  9.00
556.8  21650.10  1952.17  9.02
558.2  21773.81  1969.88  9.05
559.6  21936.94  1994.57  9.09
561.1  22168.25  2024.75  9.13
562.5  22423.78  2060.82  9.19
564.0  22757.43  2104.35  9.25
565.4  23059.14  2149.08  9.32
566.8  23449.52  2203.76  9.40
568.3  23818.66  2263.88  9.50
569.7  24198.01  2324.69  9.61
571.1  24579.14  2388.80  9.72
572.6  24952.86  2461.32  9.86
574.0  25317.60  2533.85  10.01
575.4  25678.69  2612.81  10.18
576.9  26008.29  2695.77  10.37
578.3  26306.64  2782.54  10.58
579.7  26593.28  2872.78  10.80
581.1  26823.10  2965.74  11.06
582.6  27065.10  3062.74  11.32
584.0  27286.52  3170.11  11.62
585.4  27587.92  3292.25  11.93
586.8  27978.96  3433.23  12.27
588.3  28419.30  3594.24  12.65
589.7  28786.68  3754.92  13.04
591.1  29016.81  3901.21  13.44
592.5  29127.43  4038.56  13.87
594.0  29186.34  4174.34  14.30
595.4  29194.56  4308.41  14.76
596.8  29193.45  4454.45  15.26
598.2  29177.08  4611.76  15.81
599.6  29153.88  4772.73  16.37
601.0  29216.28  4956.57  16.97
602.4  29261.60  5142.90  17.58
603.9  29364.60  5347.91  18.21
605.3  29484.10  5566.31  18.88
606.7  29584.80  5789.40  19.57
608.1  29785.49  6040.87  20.28
609.5  30013.28  6311.71  21.03
610.9  30296.78  6600.45  21.79
612.3  30557.28  6899.51  22.58
613.7  30914.00  7230.76  23.39
615.1  31159.08  7555.68  24.25
616.5  31406.64  7892.32  25.13
617.9  31801.61  8274.78  26.02
619.3  32170.62  8662.72  26.93
620.7  32635.92  9090.30  27.85
622.1  33083.75  9535.55  28.82
623.5  33564.04  10062.94  29.98
624.9  34116.86  10633.61  31.17
626.3  34490.69  11140.95  32.30
627.7  34145.81  11379.97  33.33
629.1  33851.16  11596.27  34.26
630.5  33743.57  11867.09  35.17
631.9  33775.53  12171.10  36.04
633.3  33808.52  12470.08  36.88
634.7  33992.91  12815.72  37.70
636.1  34075.08  13093.98  38.43
637.5  34196.58  13331.59  38.99
638.9  34374.61  13547.36  39.41
640.2  34545.58  13745.01  39.79
641.6  34634.34  13887.12  40.10
643.0  34657.83  13997.45  40.39
644.4  34696.37  14095.38  40.62
645.8  34653.86  14174.05  40.90
647.2  34834.41  14376.22  41.27
648.5  34958.93  14581.71  41.71
649.9  34861.32  14708.07  42.19
651.3  34789.65  14869.05  42.74
652.7  34680.00  14983.80  43.21
654.1  34452.30  14879.72  43.19
655.5  34172.42  14710.18  43.05
656.8  33904.63  14516.61  42.82
658.2  34070.04  14476.40  42.49
659.6  34442.82  14518.09  42.15
660.9  34748.70  14497.06  41.72
662.3  35067.95  14437.25  41.17
663.7  35364.00  14347.90  40.57
665.0  35617.00  14249.16  40.01
666.4  35877.31  14151.45  39.44
667.8  36209.10  14093.19  38.92
669.1  36482.80  14027.34  38.45
670.5  36799.72  14021.09  38.10
671.9  36995.40  14005.28  37.86
673.2  37270.13  14064.15  37.74
674.6  37530.47  14161.69  37.73
676.0  37841.78  14328.58  37.86
677.3  38141.57  14557.46  38.17
678.7  38483.75  14893.42  38.70
680.0  38922.37  15392.43  39.55
681.4  39389.45  16046.57  40.74
682.8  39844.35  16897.18  42.41
684.1  40287.78  17928.30  44.50
685.5  40705.56  19126.30  46.99
686.8  41091.84  20482.78  49.85
688.2  41433.89  21922.74  52.91
689.5  41549.57  23300.18  56.08
690.9  41633.44  24677.51  59.27
692.2  41697.60  26007.45  62.37
693.6  41771.65  27280.00  65.31
694.9  41721.88  28411.95  68.10
696.2  41751.90  29508.71  70.68
697.6  41766.04  30511.39  73.05
698.9  41796.48  31436.24  75.21
700.3  41844.24  32281.19  77.15
701.6  41918.48  33065.99  78.88
703.0  41979.40  33783.72  80.48
704.3  41981.71  34377.47  81.89
705.6  41967.18  34902.90  83.17
707.0  41980.75  35394.37  84.31
708.3  41872.71  35738.89  85.35
709.6  41753.67  36057.86  86.36
711.0  41589.99  36281.06  87.24
712.3  41418.66  36472.27  88.06
713.6  41354.04  36721.58  88.80
714.9  41240.96  36903.86  89.48
716.3  41218.54  37140.60  90.11
717.6  41221.95  37380.19  90.68
718.9  41134.56  37504.51  91.18
720.2  40936.00  37501.59  91.61
721.6  40765.66  37531.48  92.07
722.9  40572.15  37514.71  92.46
724.2  40305.71  37416.94  92.83
725.5  40134.57  37373.14  93.12
726.8  39960.91  37313.47  93.37
728.1  39855.98  37314.92  93.62
729.5  39766.23  37310.91  93.83
730.8  39707.44  37318.51  93.98
732.1  39612.07  37288.70  94.13
733.4  39556.45  37283.40  94.25
734.7  39507.57  37276.92  94.35
736.0  39511.29  37349.09  94.53
737.3  39463.58  37358.43  94.67
738.6  39569.04  37528.14  94.84
739.9  39770.92  37789.24  95.02
741.2  39928.98  37998.87  95.17
742.5  40206.42  38351.27  95.39
743.8  40696.43  38896.55  95.58
745.1  41398.16  39672.73  95.83
746.4  42245.84  40545.05  95.97
747.7  43136.62  41426.84  96.04
749.0  43980.49  42263.62  96.10
750.3  44484.44  42700.45  95.99
751.6  44396.66  42630.62  96.02
752.9  43969.12  42233.89  96.05
754.2  43470.53  41801.80  96.16
755.4  42928.75  41365.49  96.36
756.7  42746.48  41295.95  96.61
758.0  42774.71  41403.34  96.79
759.3  43048.01  41771.02  97.03
760.6  43418.76  42227.83  97.26
761.9  43775.94  42642.21  97.41
763.1  43996.61  42897.80  97.50
764.4  44239.34  43212.40  97.68
765.7  44424.25  43455.75  97.82
767.0  44583.75  43653.55  97.91
768.2  44688.00  43830.08  98.08
769.5  44782.92  43975.25  98.20
770.8  44990.42  44216.14  98.28
772.0  45014.41  44313.68  98.44
773.3  45100.97  44450.41  98.56
774.6  45226.84  44614.75  98.65
775.8  45313.45  44747.85  98.75
777.1  45344.81  44813.73  98.83
778.4  45245.88  44777.92  98.97
779.6  45226.44  44817.72  99.10
780.9  45132.00  44792.00  99.25
782.1  44952.26  44665.83  99.36
783.4  44936.32  44707.52  99.49
784.6  44935.72  44791.63  99.68
785.9  45255.62  45197.64  99.87
787.1  45836.93  45869.88  100.07
788.4  46288.94  46349.71  100.13
789.6  46219.23  46210.88  99.98
790.9  45788.99  45689.74  99.78
792.1  45296.16  45205.07  99.80
793.4  44771.54  44769.94  100.00
794.6  44415.30  44456.12  100.09
795.8  44134.47  44194.73  100.14
797.1  43801.05  43929.15  100.29
798.3  43569.08  43749.06  100.41
799.5  43411.48  43660.21  100.57
800.8  43273.13  43527.62  100.59
802.0  43071.08  43396.52  100.76
803.2  42890.28  43233.80  100.80
804.5  42742.15  43120.53  100.89
805.7  42601.95  42984.86  100.90
806.9  42426.40  42842.70  100.98
808.1  42305.67  42752.63  101.06
809.4  42221.44  42678.22  101.08
810.6  42105.70  42583.45  101.13
811.8  42062.43  42579.12  101.23
813.0  42071.08  42582.52  101.22
814.2  42081.20  42622.73  101.29
815.4  42185.03  42713.56  101.25
816.6  42225.34  42725.94  101.19
817.9  42273.21  42733.47  101.09
819.1  42166.58  42625.63  101.09
820.3  42039.03  42422.46  100.91
821.5  41905.07  42289.68  100.92
822.7  41849.58  42175.35  100.78
823.9  41838.35  42131.31  100.70
825.1  41851.34  42065.43  100.51
826.3  41890.94  42036.30  100.35
827.5  41937.05  42018.90  100.20
828.7  42011.28  41980.88  99.93
829.9  42039.57  41940.50  99.76
831.0  42140.75  41953.88  99.56
832.2  42235.78  41975.38  99.38
833.4  42305.18  41991.92  99.26
834.6  42417.19  42026.56  99.08
835.8  42496.65  42071.40  99.00
837.0  42597.61  42151.06  98.95
838.1  42745.68  42284.80  98.92
839.3  42856.00  42357.64  98.84
840.5  42989.60  42480.17  98.81
841.7  43156.80  42629.00  98.78
842.9  43298.86  42783.15  98.81
844.0  43430.88  42905.07  98.79
845.2  43568.90  43071.19  98.86
846.4  43732.15  43200.27  98.78
847.5  43960.00  43436.15  98.81
848.7  44164.79  43612.40  98.75
849.9  44393.85  43784.83  98.63
851.0  44478.08  43824.02  98.53
852.2  44569.63  43888.35  98.47
853.3  44562.81  43851.69  98.40
854.5  44594.90  43842.47  98.31
855.6  44615.97  43862.22  98.31
856.8  44687.86  43893.73  98.22
857.9  44681.40  43896.44  98.24
859.1  44832.20  44022.07  98.19
860.2  44876.88  44043.73  98.14
861.4  44954.55  44090.69  98.08
862.5  45021.69  44139.16  98.04
863.7  45150.84  44241.88  97.99
864.8  45213.35  44271.27  97.92
865.9  45167.77  44218.62  97.90
867.1  45241.43  44241.70  97.79
868.2  45295.54  44254.98  97.70
869.3  45314.27  44272.48  97.70
870.5  45282.48  44173.84  97.55
871.6  45315.83  44166.73  97.46
872.7  45413.27  44236.93  97.41
873.9  45478.16  44244.37  97.29
875.0  45456.71  44169.37  97.17
876.1  45452.45  44137.89  97.11
877.2  45498.99  44120.47  96.97
878.3  45519.98  44096.90  96.87
879.4  45563.53  44088.85  96.76
880.5  45631.08  44093.76  96.63
881.7  45596.20  44016.05  96.53
882.8  45693.96  44034.14  96.37
883.9  45722.91  43988.92  96.21
885.0  45675.63  43841.98  95.99
886.1  45712.78  43750.30  95.71
887.2  45537.58  43526.06  95.58
888.3  45475.07  43343.85  95.31
889.4  45347.40  43161.01  95.18
890.5  45259.13  43037.90  95.09
891.6  45193.70  42886.95  94.90
892.7  45201.31  42818.80  94.73
893.8  45270.56  42808.52  94.56
894.9  45248.28  42740.57  94.46
896.0  45235.90  42635.61  94.25
897.0  45257.72  42611.07  94.15
898.1  45230.13  42546.04  94.07
899.2  45252.30  42481.43  93.88
900.3  45165.90  42364.55  93.80
901.4  45101.16  42194.35  93.55
902.4  45077.20  42157.28  93.52
903.5  45018.01  42042.17  93.39
904.6  45035.56  41942.17  93.13
905.7  45038.93  41891.77  93.01
906.7  44985.82  41790.21  92.90
907.8  45025.57  41742.35  92.71
908.9  44904.57  41590.90  92.62
909.9  44897.74  41493.88  92.42
911.0  44830.08  41374.57  92.29
912.1  44749.25  41195.54  92.06
913.1  44707.00  41054.69  91.83
914.2  44554.62  40845.05  91.67
915.2  44505.45  40749.21  91.56
916.3  44491.35  40665.65  91.40
917.3  44461.10  40517.76  91.13
918.4  44383.35  40296.39  90.79
919.4  44330.69  40139.46  90.55
920.5  44315.70  40004.65  90.27
921.5  44285.78  39905.18  90.11
922.6  44268.10  39693.48  89.67
923.6  44262.16  39568.82  89.40
924.7  44333.00  39448.92  88.98
925.7  44276.22  39287.86  88.73
926.7  44252.98  39119.02  88.40
927.8  44374.33  38980.85  87.85
928.8  44502.63  38915.09  87.44
929.9  44598.23  38836.44  87.08
930.9  44802.27  38789.05  86.58
931.9  45011.35  38791.49  86.18
932.9  45355.12  38868.06  85.70
934.0  45370.16  38710.71  85.32
935.0  45397.97  38528.78  84.87
936.0  45413.73  38338.32  84.42
937.0  45319.95  38095.72  84.06
938.1  45295.44  37889.54  83.65
939.1  45257.91  37654.83  83.20
940.1  45342.90  37524.74  82.76
941.1  45568.46  37522.63  82.34
942.1  45803.34  37525.83  81.93
943.1  45999.43  37459.88  81.44
944.1  46171.28  37398.18  81.00
945.2  46338.18  37241.54  80.37
946.2  46411.22  37070.93  79.87
947.2  46518.25  36937.30  79.40
948.2  46693.82  36817.50  78.85
949.2  46838.19  36644.56  78.24
950.2  46912.95  36459.75  77.72
951.2  46909.80  36247.40  77.27
952.2  47054.57  36042.73  76.60
953.2  47260.85  35963.20  76.10
954.2  47365.65  35803.13  75.59
955.2  47408.68  35569.31  75.03
956.2  47434.65  35375.08  74.58
957.2  47543.77  35250.72  74.14
958.2  47601.59  35148.10  73.84
959.2  47735.55  35037.15  73.40
960.1  47775.14  34959.08  73.17
961.1  47870.63  34925.25  72.96
962.1  47933.44  34847.19  72.70
963.1  48032.50  34861.42  72.58
964.1  48057.21  34852.22  72.52
965.1  48243.99  34931.33  72.41
966.1  48335.33  34918.69  72.24
967.0  48410.39  34950.70  72.20
968.0  48434.88  34923.00  72.10
969.0  48556.60  34981.87  72.04
970.0  48603.65  35006.98  72.03
971.0  48737.12  35066.12  71.95
971.9  48722.90  35111.35  72.06
972.9  48879.95  35086.36  71.78
973.9  48859.53  35131.96  71.90
974.9  49044.08  35173.85  71.72
975.8  49101.73  35288.91  71.87
976.8  49135.91  35317.06  71.88
977.8  49315.41  35468.02  71.92
978.8  49372.50  35536.85  71.98
979.7  49504.50  35692.13  72.10
980.7  49626.72  35881.29  72.30
981.7  49868.69  36071.84  72.33
982.6  50026.42  36359.57  72.68
983.6  50542.44  36767.89  72.75
984.6  51139.74  37293.17  72.92
985.5  51570.00  37840.92  73.38
986.5  52881.11  38732.05  73.24
987.5  53801.49  39533.86  73.48
988.4  54737.10  40368.17  73.75
989.4  56052.04  41113.15  73.35
990.4  57074.27  42525.93  74.51
991.3  59136.61  43344.13  73.29
992.3  61232.97  44408.58  72.52
993.2  62381.81  46000.98  73.74
994.2  63759.15  46975.99  73.68
995.2  64627.45  47561.33  73.59
996.1  65405.36  48188.06  73.68
997.1  65143.00  48531.54  74.50
998.0  67149.60  48306.60  71.94
999.0  66846.51  48418.56  72.43
1000.0  67127.69  48626.95  72.44
1000.9  65712.83  49055.09  74.65
1001.9  66491.34  48517.06  72.97
1002.8  64393.95  47947.01  74.46
1003.8  65025.46  48587.26  74.72
1004.8  66172.20  48374.16  73.10
961.5  59748.86  35224.11  58.95
965.5  58598.35  34942.93  59.63
969.5  56260.49  34284.74  60.94
973.4  53913.29  33507.98  62.15
977.4  51859.95  32929.29  63.50
981.4  50850.20  32828.79  64.56
985.3  50481.20  33016.02  65.40
989.3  50535.22  33384.83  66.06
993.3  50635.09  33783.94  66.72
997.2  50595.02  34049.74  67.30
1001.2  50545.04  34305.31  67.87
1005.2  50473.33  34632.74  68.62
1009.1  50535.74  35083.23  69.42
1013.1  50697.93  35619.35  70.26
1017.1  50843.90  36164.01  71.13
1021.0  50855.49  36611.84  71.99
1025.0  50816.26  37017.44  72.85
1029.0  50641.08  37311.16  73.68
1032.9  50496.42  37620.92  74.50
1036.9  50486.34  38035.77  75.34
1040.9  50614.23  38536.94  76.14
1044.8  50848.91  39088.04  76.87
1048.8  51055.33  39577.62  77.52
1052.7  51200.97  39985.88  78.10
1056.7  51265.76  40275.39  78.56
1060.7  51328.86  40478.40  78.86
1064.6  51364.29  40638.16  79.12
1068.6  51285.22  40663.19  79.29
1072.5  51205.93  40609.49  79.31
1076.5  51155.97  40530.92  79.23
1080.4  51154.95  40423.58  79.02
1084.4  51258.31  40349.30  78.72
1088.3  51367.47  40231.54  78.32
1092.3  51376.13  39953.63  77.77
1096.2  51342.58  39637.68  77.20
1100.2  51360.86  39345.63  76.61
1104.1  51244.60  38924.39  75.96
1108.1  51175.76  38537.77  75.30
1112.0  51059.75  38088.89  74.60
1116.0  50831.30  37514.19  73.80
1119.9  50653.13  36895.06  72.84
1123.9  50703.41  36316.45  71.63
1127.8  50649.60  35435.52  69.96
1131.8  50608.23  34306.51  67.79
1135.7  50617.81  33013.65  65.22
1139.6  50606.06  31585.35  62.41
1143.6  50555.26  30194.24  59.73
1147.5  50517.05  29005.53  57.42
1151.4  50365.69  28003.21  55.60
1155.4  50355.11  27350.17  54.31
1159.3  50376.78  26919.73  53.44
1163.2  50207.59  26538.79  52.86
1167.2  50161.80  26334.06  52.50
1171.1  50174.37  26195.67  52.21
1175.0  50101.08  26034.52  51.96
1179.0  50065.70  25890.19  51.71
1182.9  50165.17  25819.03  51.47
1186.8  50159.61  25707.69  51.25
1190.7  49934.95  25494.84  51.06
1194.7  49665.47  25282.43  50.91
1198.6  49438.62  25123.56  50.82
1202.5  49264.40  25032.29  50.81
1206.4  49122.14  24997.70  50.89
1210.3  49037.26  25020.20  51.02
1214.2  48930.30  25065.78  51.23
1218.2  48765.56  25111.19  51.49
1222.1  48630.48  25197.85  51.81
1226.0  48538.40  25303.67  52.13
1229.9  48450.48  25392.30  52.41
1233.8  48352.03  25470.69  52.68
1237.7  48317.50  25559.28  52.90
1241.6  48229.08  25619.73  53.12
1245.5  48061.09  25635.20  53.34
1249.4  47934.98  25648.19  53.51
1253.3  47803.87  25657.11  53.67
1257.2  47735.46  25670.81  53.78
1261.1  47624.11  25645.25  53.85
1265.0  47490.52  25584.37  53.87
1268.9  47304.07  25461.42  53.83
1272.8  47372.70  25451.45  53.73
1276.7  47590.81  25489.73  53.56
1280.6  47691.16  25436.98  53.34
1284.5  47615.01  25254.00  53.04
1288.4  47591.67  25069.53  52.68
1292.3  47467.75  24794.92  52.24
1296.2  47318.59  24463.09  51.70
1300.1  47148.87  24072.54  51.06
1303.9  46897.39  23601.11  50.32
1307.8  46639.44  23098.92  49.53
1311.7  46386.67  22558.11  48.63
1315.6  46123.85  21987.22  47.67
1319.5  45848.18  21376.30  46.62
1323.3  45606.50  20759.92  45.52
1327.2  45386.16  20143.87  44.38
1331.1  45132.53  19515.01  43.24
1335.0  44824.46  18873.54  42.11
1338.8  44600.56  18295.78  41.02
1342.7  44421.07  17764.68  39.99
1346.5  44042.02  17170.89  38.99
1350.4  43720.62  16622.80  38.02
1354.3  43279.60  16062.01  37.11
1358.1  42799.92  15524.29  36.27
1362.0  42533.76  15075.67  35.44
1365.8  42447.40  14681.49  34.59
1369.7  42569.31  14299.72  33.59
1373.5  42515.11  13731.34  32.30
1377.4  42239.08  12972.51  30.71
1381.2  42024.35  12123.65  28.85
1385.1  42007.68  11271.80  26.83
1389.0  41913.21  10383.78  24.77
1392.8  41686.58  9486.82  22.76
1396.6  41522.45  8686.04  20.92
1400.5  41297.26  7986.16  19.34
1404.3  41119.22  7418.44  18.04
1408.2  41089.83  6977.98  16.98
1412.0  41038.18  6626.28  16.15
1415.8  41063.56  6370.90  15.51
1419.6  41020.11  6162.88  15.02
1423.5  40984.07  6005.25  14.65
1427.3  40938.38  5890.98  14.39
1431.1  40915.35  5808.63  14.20
1434.9  40812.08  5737.21  14.06
1438.8  40755.58  5687.96  13.96
1442.6  40720.04  5656.91  13.89
1446.4  40579.53  5621.13  13.85
1450.2  40476.97  5602.52  13.84
1454.0  40349.16  5583.72  13.84
1457.8  40313.93  5587.79  13.86
1461.6  40291.52  5610.53  13.92
1465.4  40157.17  5631.02  14.02
1469.2  39958.10  5661.72  14.17
1473.0  39808.79  5720.59  14.37
1476.8  39739.71  5811.18  14.62
1480.7  39668.27  5912.48  14.90
1484.4  39532.92  6025.28  15.24
1488.2  39418.92  6164.36  15.64
1492.0  39281.08  6311.11  16.07
1495.8  39157.30  6448.87  16.47
1499.6  39041.55  6560.48  16.80
1503.4  38891.42  6652.74  17.11
1507.2  38758.78  6735.52  17.38
1510.9  38603.27  6805.64  17.63
1514.7  38431.80  6872.76  17.88
1518.5  38296.78  6954.13  18.16
1522.3  38148.01  7030.40  18.43
1526.0  38038.86  7123.95  18.73
1529.8  37977.87  7233.20  19.05
1533.6  37845.65  7321.37  19.35
1537.3  37710.11  7419.89  19.68
1541.1  37580.52  7527.80  20.03
1544.8  37449.60  7632.80  20.38
1548.6  37314.89  7725.65  20.70
1552.4  37219.38  7822.22  21.02
1556.1  37135.69  7905.60  21.29
1559.9  37030.39  7978.40  21.55
1563.6  36900.49  8060.49  21.84
1567.3  36782.10  8160.26  22.19
1571.1  36560.28  8239.40  22.54
1574.8  36404.14  8333.81  22.89
1578.6  36302.38  8430.44  23.22
1582.3  36157.52  8488.12  23.48
1586.0  36009.48  8532.16  23.69
1589.8  35863.84  8579.79  23.92
1593.5  35710.53  8619.18  24.14
1597.2  35575.62  8662.01  24.35
1600.9  35432.24  8706.07  24.57
1604.7  35280.85  8743.72  24.78
1608.4  35142.04  8785.91  25.00
1612.1  34980.47  8819.81  25.21
1615.8  34834.07  8858.09  25.43
1619.5  34752.20  8913.79  25.65
1623.2  34595.03  8944.67  25.86
1626.9  34406.93  8960.59  26.04
1630.6  34230.90  8981.43  26.24
1634.3  34081.71  9008.66  26.43
1638.0  33920.36  9017.14  26.58
1641.7  33748.10  9015.51  26.71
1645.4  33556.70  9005.43  26.84
1649.1  33353.05  8986.69  26.94
1652.8  33189.89  8969.98  27.03
1656.4  33018.59  8942.68  27.08
1660.1  32845.97  8912.62  27.13
1663.8  32642.92  8866.74  27.16
1667.5  32483.35  8832.33  27.19
1671.1  32351.26  8795.04  27.19
1674.8  32144.07  8731.64  27.16
1678.5  32080.00  8697.54  27.11
1682.1  32102.13  8667.94  27.00
1685.8  32123.16  8629.24  26.86
1689.5  32018.65  8552.48  26.71
1693.1  31881.24  8468.01  26.56
1696.8  31732.38  8381.38  26.41
1700.4  31582.94  8283.01  26.23
1704.0  31466.76  8182.24  26.00
1707.7  31189.67  8037.21  25.77
1711.3  30882.00  7874.60  25.50
1715.0  30659.79  7738.87  25.24
1718.6  30484.31  7616.89  24.99
1722.2  30333.58  7506.54  24.75
1725.9  30181.80  7398.26  24.51
1729.5  30037.98  7298.54  24.30
1733.1  29910.73  7237.78  24.20
1736.7  29788.38  7192.20  24.14
1740.3  29614.18  7111.56  24.01
1744.0  29528.30  7041.05  23.85
1747.5  29373.44  6945.85  23.65
1751.2  29138.63  6825.37  23.42
1754.8  28975.37  6719.34  23.19
1758.4  28834.48  6617.98  22.95
1762.0  28639.33  6521.17  22.77
1765.5  28498.38  6449.50  22.63
1769.1  28452.00  6411.20  22.53
1772.7  28378.96  6368.04  22.44
1776.3  28252.73  6308.43  22.33
1779.9  28119.54  6249.33  22.22
1783.5  28061.20  6212.40  22.14
1787.0  27938.82  6163.37  22.06
1790.6  27774.17  6111.78  22.01
1794.2  27666.21  6086.67  22.00
1797.8  27558.84  6059.18  21.99
1801.3  27465.68  6036.57  21.98
1804.9  27315.75  6013.00  22.01
1808.4  27221.13  5993.68  22.02
1812.0  27071.27  5952.19  21.99
1815.5  26907.62  5913.06  21.98
1819.1  26703.43  5869.68  21.98
1822.6  26545.43  5829.72  21.96
1826.2  26400.51  5789.79  21.93
1829.7  26207.46  5733.82  21.88
1833.2  25952.41  5659.50  21.81
1836.8  25712.51  5596.05  21.76
1840.3  25567.16  5545.08  21.69
1843.8  25454.03  5489.14  21.56
1847.3  25371.56  5440.87  21.44
1850.8  25264.51  5374.66  21.27
1854.3  25105.60  5284.67  21.05
1857.8  25027.60  5174.00  20.67
1861.3  25027.70  5034.86  20.12
1864.8  24948.54  4839.76  19.40
1868.3  24715.93  4556.35  18.43
1871.8  24529.92  4272.64  17.42
1875.3  24489.01  4011.89  16.38
1878.8  24485.84  3750.99  15.32
1882.3  24423.29  3490.91  14.29
1885.8  24245.59  3255.23  13.43
1889.3  24030.42  3055.59  12.72
1892.7  23852.68  2912.97  12.21
1896.2  23673.74  2816.93  11.90
1899.7  23427.69  2763.26  11.79
1903.1  23323.61  2759.68  11.83
1906.6  23396.53  2861.72  12.23
1910.0  23683.33  3127.20  13.20
1913.5  24138.15  3470.85  14.38
1917.0  24628.98  3987.90  16.19
1920.4  25146.40  4530.05  18.01
1923.8  25520.19  4984.84  19.53
1871.2  22263.77  2739.57  12.31
1873.9  22507.55  2612.99  11.61
1876.7  22626.01  2506.24  11.08
1879.5  22737.83  2399.26  10.55
1882.3  22382.76  2234.37  9.98
1885.1  22317.18  2014.21  9.03
1887.8  22505.15  1871.99  8.32
1890.6  22306.26  1785.44  8.00
1893.4  22256.67  1696.44  7.62
1896.2  22163.50  1622.89  7.32
1898.9  22083.42  1554.45  7.04
1901.7  21937.94  1485.26  6.77
1904.5  22143.94  1474.15  6.66
1907.2  22059.00  1472.50  6.68
1910.0  21927.95  1477.14  6.74
1912.7  21918.25  1489.24  6.79
1915.5  21816.04  1482.75  6.80
1918.2  21741.95  1468.31  6.75
1921.0  21589.30  1456.71  6.75
1923.7  21620.81  1465.18  6.78
1926.5  21581.93  1480.70  6.86
1929.2  21568.04  1474.00  6.83
1932.0  21551.20  1463.08  6.79
1934.7  21508.34  1466.41  6.82
1937.4  21385.99  1474.33  6.89
1940.2  21322.79  1480.32  6.94
1942.9  21412.44  1475.81  6.89
1945.6  21432.94  1481.81  6.91
1948.3  21347.13  1492.13  6.99
1951.1  21319.83  1495.97  7.02
1953.8  21321.00  1501.00  7.04
1956.5  21174.65  1501.50  7.09
1959.2  21255.91  1508.95  7.10
1961.9  21274.22  1521.79  7.15
1964.6  21161.18  1540.06  7.28
1967.3  21232.43  1562.44  7.36
1970.0  21063.36  1538.21  7.30
1972.8  20962.32  1550.26  7.40
1975.5  21019.32  1576.50  7.50
1978.2  20951.00  1590.43  7.59
1980.9  20833.51  1607.14  7.71
1983.5  20753.87  1617.04  7.79
1986.2  20730.84  1624.75  7.84
1988.9  20710.47  1638.33  7.91
1991.6  20560.54  1645.31  8.00
1994.3  20429.18  1645.39  8.05
1997.0  20463.02  1666.57  8.14
1999.7  20411.81  1674.18  8.20
2002.3  20392.69  1693.40  8.30
2005.0  20300.64  1708.74  8.42
2007.7  20215.73  1709.49  8.46
2010.4  20150.59  1727.28  8.57
2013.0  20054.41  1736.40  8.66
2015.7  19971.23  1738.15  8.70
2018.4  19850.99  1747.38  8.80
2021.0  19776.67  1762.33  8.91
2023.7  19665.12  1765.72  8.98
2026.4  19623.72  1775.44  9.05
2029.0  19549.52  1787.28  9.14
2031.7  19389.93  1773.56  9.15
2034.3  19392.75  1782.01  9.19
2037.0  19277.12  1806.29  9.37
2039.6  19203.81  1810.85  9.43
2042.3  19169.68  1804.82  9.41
2044.9  19085.22  1821.38  9.54
2047.5  19057.17  1828.86  9.60
2050.2  18939.20  1825.60  9.64
2052.8  18894.40  1843.33  9.76
2055.4  18768.37  1837.89  9.79
2058.1  18622.80  1825.60  9.80
2060.7  18569.98  1840.04  9.91
2063.3  18475.60  1849.42  10.01
2065.9  18427.79  1839.71  9.98
2068.6  18352.42  1841.57  10.03
2071.2  18299.61  1863.72  10.18
2073.8  18217.15  1859.96  10.21
2076.4  18153.52  1870.17  10.30
2079.0  18135.74  1895.81  10.45
2081.6  18151.63  1887.75  10.40
2084.2  18112.28  1893.34  10.45
2086.8  17948.60  1896.87  10.57
2089.4  17865.33  1903.40  10.65
2092.1  17782.00  1913.44  10.76
2094.7  17712.75  1905.93  10.76
2097.2  17685.67  1916.28  10.84
2099.8  17677.80  1929.09  10.91
2102.4  17557.58  1932.52  11.01
2105.0  17419.20  1928.50  11.07
2107.6  17352.05  1926.42  11.10
2110.2  17317.12  1939.91  11.20
2112.8  17308.85  1949.93  11.27
2115.3  17299.79  1961.97  11.34
2117.9  17305.54  1981.84  11.45
2120.5  17283.04  1980.26  11.46
2123.1  17169.75  1982.18  11.54
2125.6  17130.75  2002.01  11.69
2128.2  17041.98  1989.16  11.67
2130.8  16938.68  1991.93  11.76
2133.3  16907.73  2001.51  11.84
2135.9  16811.63  1988.57  11.83
2138.4  16669.29  1983.10  11.90
2141.0  16557.51  1991.21  12.03
2143.6  16519.94  2003.31  12.13
2146.1  16331.26  1981.42  12.13
2148.7  16166.35  1969.52  12.18
2151.2  16200.80  1986.85  12.26
2153.8  16223.65  2001.47  12.34
2156.3  16092.71  1993.50  12.39
2158.8  16012.97  1994.49  12.46
2161.4  15977.02  2003.88  12.54
2163.9  15879.72  1989.14  12.53
2166.4  15806.34  1976.04  12.50
2169.0  15776.77  1984.91  12.58
2171.5  15691.03  1977.02  12.60
2174.0  15580.08  1967.47  12.63
2176.5  15568.93  1977.39  12.70
2179.1  15528.15  1969.63  12.68
2181.6  15436.46  1975.06  12.79
2184.1  15393.84  1983.52  12.89
2186.6  15412.36  1992.84  12.93
2189.1  15330.96  1983.78  12.94
2191.6  15265.13  1962.18  12.85
2194.1  15289.63  1979.72  12.95
2196.6  15291.79  1985.92  12.99
2199.2  15355.64  1987.19  12.94
2201.7  15282.97  1999.76  13.08
2204.1  15217.08  1992.54  13.09
2206.6  15263.16  1995.55  13.07
2209.1  15196.78  1989.65  13.09
2211.6  15154.34  1973.12  13.02
2214.1  15142.04  1970.53  13.01
2216.6  15136.36  1961.20  12.96
2219.1  15121.17  1959.94  12.96
2221.6  15017.30  1965.51  13.09
2224.0  14973.30  1940.56  12.96
2226.5  14953.65  1922.79  12.86
2229.0  14990.65  1945.21  12.98
2231.5  14856.57  1909.89  12.86
2233.9  14819.93  1884.40  12.72
2236.4  14830.12  1896.55  12.79
2238.9  14725.00  1865.17  12.67
2241.3  14738.24  1844.87  12.52
2243.8  14703.26  1835.80  12.49
2246.2  14560.76  1801.36  12.37
2248.7  14543.49  1777.92  12.22
2251.2  14547.02  1787.15  12.29
2253.6  14461.44  1779.20  12.30
2256.1  14411.52  1731.84  12.02
2258.5  14448.51  1740.27  12.04
2260.9  14358.24  1707.86  11.89
2263.4  14286.28  1662.00  11.63
2265.8  14286.52  1669.46  11.69
2268.3  14242.68  1626.56  11.42
2270.7  14293.95  1624.89  11.37
2273.1  14208.68  1608.15  11.32
2275.6  14138.88  1592.32  11.26
2278.0  14162.68  1574.48  11.12
2280.4  14119.54  1554.73  11.01
2282.8  13992.20  1562.86  11.17
2285.3  14040.77  1541.08  10.98
2287.7  14128.29  1532.07  10.84
2290.1  13998.75  1512.81  10.81
2292.5  13976.47  1486.80  10.64
2294.9  14012.61  1481.88  10.58
2297.3  13889.96  1427.76  10.28
2299.7  13787.58  1397.71  10.14
2302.1  13749.17  1401.11  10.19
2304.5  13602.40  1377.23  10.12
2306.9  13496.56  1349.79  10.00
2309.3  13451.64  1332.23  9.90
2311.7  13329.30  1321.42  9.91
2314.1  13154.03  1299.65  9.88
2316.5  13124.14  1305.45  9.95
2318.9  13145.46  1315.20  10.01
2321.3  13101.23  1324.52  10.11
2323.7  13118.10  1339.10  10.21
2326.1  13081.38  1321.84  10.10
2328.4  13108.17  1316.79  10.05
2330.8  13202.52  1318.34  9.99
2333.2  13104.54  1306.89  9.97
2335.6  13023.78  1287.02  9.88
2337.9  13062.53  1282.60  9.82
2340.3  13002.24  1274.89  9.81
2342.7  12902.35  1253.99  9.72
2345.0  12884.39  1241.44  9.64
2347.4  12860.50  1219.75  9.48
2349.7  12661.22  1188.95  9.39
2352.1  12633.43  1179.29  9.33
2354.4  12658.59  1182.04  9.34
2356.8  12578.77  1175.57  9.35
2359.2  12527.67  1165.67  9.30
2361.5  12479.13  1185.37  9.50
2363.8  12494.29  1160.86  9.29
2366.2  12489.73  1141.58  9.14
2368.5  12451.10  1140.68  9.16
2370.9  12453.76  1134.73  9.11
2373.2  12415.30  1133.16  9.13
2375.5  12276.33  1116.17  9.09
2377.9  12211.78  1103.12  9.03
2380.2  12242.21  1096.55  8.96
2382.5  12139.99  1082.89  8.92
2384.8  12068.64  1062.56  8.80
2387.2  12086.52  1081.44  8.95
2389.5  12068.58  1084.41  8.99
2391.8  12016.43  1059.99  8.82
2394.1  11909.46  1049.24  8.81
2396.4  11863.59  1037.02  8.74
2398.7  11940.46  1010.06  8.46
2401.0  11823.50  998.89  8.45
2403.3  11693.04  1010.94  8.65
2405.6  11741.09  1032.99  8.80
2407.9  11668.29  1015.36  8.70
2410.2  11575.79  985.96  8.52
2412.5  11525.22  975.68  8.47
2414.8  11512.67  973.94  8.46
2417.1  11505.36  975.55  8.48
2419.4  11477.63  962.11  8.38
2421.7  11364.91  944.45  8.31
2424.0  11316.90  942.19  8.33
2426.2  11347.35  952.30  8.39
2428.5  11281.78  951.87  8.44
2430.8  11243.35  937.40  8.34
2433.1  11179.50  920.10  8.23
2435.4  11100.48  921.31  8.30
2437.6  11066.91  897.07  8.11
2439.9  10932.41  866.58  7.93
2442.2  10967.11  876.00  7.99
2444.4  10975.51  859.58  7.83
2446.7  10909.12  852.64  7.82
2448.9  10931.40  886.28  8.11
2451.2  10853.16  894.00  8.24
2453.4  10787.73  859.81  7.97
2455.7  10721.98  831.16  7.75
2457.9  10647.12  850.63  7.99
2460.2  10665.45  856.94  8.03
2462.4  10576.80  817.44  7.73
2464.7  10503.38  780.13  7.43
2466.9  10471.02  785.38  7.50
2469.2  10480.86  803.73  7.67
2471.4  10359.57  787.80  7.60
2473.6  10250.05  763.23  7.45
2475.9  10220.96  774.42  7.58
2478.1  10124.53  758.32  7.49
2480.3  10080.49  754.18  7.48
2482.5  10057.71  760.10  7.56
2484.8  9961.32  747.59  7.50
2487.0  9924.93  743.14  7.49
2489.2  9935.52  738.76  7.44
2491.4  9875.23  732.64  7.42
2493.6  9884.14  734.19  7.43
2495.8  9866.24  749.60  7.60
2498.0  9849.60  726.90  7.38
2500.2  9865.68  738.59  7.49
2502.4  10096.56  754.80  7.48
2504.6  10244.49  738.68  7.21
2506.8  10345.65  746.86  7.22
