/*** Spectra Vista SIG Data ***/
name= S4.sig
comm= Resampled spectral data SIG file reprocesed for matching/overlap;Averaged Ref/Tar of files: RD3S10,RD3S11,RD3S12
data=
346.0  598.78  208.09  34.75
356.0  924.17  253.92  27.48
366.0  1234.61  288.89  23.40
376.0  1691.57  329.06  19.45
386.0  2110.32  349.47  16.56
396.0  2699.64  424.15  15.71
406.0  3258.06  428.88  13.16
416.0  3980.12  510.14  12.82
426.0  4560.62  541.93  11.88
436.0  5560.57  616.19  11.08
446.0  6459.13  692.52  10.72
456.0  7345.42  750.76  10.22
466.0  8824.96  882.34  10.00
476.0  10121.58  1005.25  9.93
486.0  10943.49  1029.05  9.40
496.0  12761.25  1174.77  9.21
506.0  14311.81  1310.80  9.16
516.0  15112.04  1373.12  9.09
526.0  16957.18  1513.05  8.92
536.0  19355.60  1729.55  8.94
546.0  21330.59  1914.45  8.98
556.0  21581.55  1944.36  9.01
566.0  23226.44  2172.51  9.35
576.0  25810.52  2645.99  10.25
586.0  27755.51  3352.67  12.08
596.0  29194.08  4371.00  14.97
606.0  29534.45  5677.86  19.22
616.0  31318.23  7772.09  24.82
626.0  34410.58  11032.24  32.06
636.0  34069.21  13074.11  38.38
646.0  34679.65  14202.93  40.95
656.0  34069.42  14635.73  42.96
666.0  35802.93  14179.37  39.60
676.0  37841.78  14328.58  37.86
686.0  40854.13  19648.03  48.09
696.0  41747.28  29339.97  70.28
706.0  41971.06  35043.33  83.49
716.0  41223.34  37089.87  89.97
726.0  40067.78  37350.19  93.22
736.0  39511.29  37349.09  94.53
746.0  41985.01  40276.64  95.93
756.0  42844.63  41333.40  96.47
766.0  44461.06  43501.39  97.84
776.0  45318.27  44757.99  98.76
786.0  45304.05  45253.65  99.89
796.0  44083.17  44153.87  100.16
806.0  42558.06  42949.32  100.92
816.0  42205.19  42719.75  101.22
826.0  41881.04  42043.58  100.39
836.0  42513.48  42084.68  98.99
846.0  43677.73  43157.24  98.81
856.0  44639.93  43872.72  98.28
866.0  45173.91  44220.54  97.89
876.0  45452.84  44140.75  97.11
886.0  45709.40  43758.63  95.73
896.0  45235.90  42635.61  94.25
906.0  45023.00  41861.30  92.98
916.0  44495.20  40688.44  91.44
926.0  44269.25  39237.21  88.63
936.0  45413.73  38338.32  84.42
946.0  46396.61  37105.05  79.97
956.0  47429.46  35413.93  74.67
966.0  48326.20  34919.95  72.26
976.0  49108.57  35294.54  71.87
986.0  50490.65  33080.56  65.52
996.0  50607.35  33967.96  67.12
1006.0  50486.13  34725.15  68.78
1016.0  50803.76  36014.23  70.89
1026.0  50772.47  37090.87  73.05
1036.0  50488.61  37942.43  75.15
1046.0  50910.83  39234.91  77.07
1056.0  51254.42  40224.73  78.48
1066.0  51336.62  40646.92  79.18
1076.0  51162.22  40540.74  79.24
1086.0  51303.09  40300.99  78.55
1096.0  51344.30  39653.88  77.23
1106.0  51211.90  38740.74  75.65
1116.0  50831.30  37514.19  73.80
1126.0  50674.44  35842.11  70.73
1136.0  50616.91  32903.76  65.01
1146.0  50531.75  29462.72  58.31
1156.0  50358.44  27283.95  54.18
1166.0  50175.54  26395.48  52.61
1176.0  50092.24  25998.44  51.90
1186.0  50160.75  25730.53  51.30
1196.0  49589.85  25229.47  50.88
1206.0  49136.73  25001.25  50.88
1216.0  48856.16  25086.22  51.35
1226.0  48538.40  25303.67  52.13
1236.0  48332.55  25520.66  52.80
1246.0  48044.92  25636.87  53.36
1256.0  47756.51  25666.59  53.74
1266.0  47442.71  25552.84  53.86
1276.0  47551.66  25482.86  53.59
1286.0  47606.03  25183.05  52.90
1296.0  47326.24  24480.10  51.73
1306.0  46758.50  23330.70  49.90
1316.0  46095.57  21924.56  47.56
1326.0  45453.96  20333.42  44.73
1336.0  44765.54  18721.50  41.82
1346.0  44091.89  17249.02  39.12
1356.0  43065.01  15821.45  36.74
1366.0  42453.65  14661.92  34.54
1376.0  42338.17  13244.91  31.28
1386.0  41985.88  11066.87  26.36
1396.0  41548.36  8812.48  21.21
1406.0  41106.41  7226.45  17.58
1416.0  41061.27  6359.95  15.49
1426.0  40954.01  5930.07  14.48
1436.0  40796.14  5723.32  14.03
1446.0  40594.32  5624.90  13.86
1456.0  40330.62  5585.86  13.85
1466.0  40125.74  5635.87  14.05
1476.0  39754.25  5792.11  14.57
1486.0  39484.92  6083.84  15.41
1496.0  39151.21  6454.74  16.49
1506.0  38800.67  6709.38  17.29
1516.0  38385.61  6900.60  17.98
1526.0  38038.86  7123.95  18.73
1536.0  37757.73  7385.27  19.56
1546.0  37407.06  7662.12  20.48
1556.0  37137.95  7903.35  21.28
1566.0  36823.70  8125.21  22.07
1576.0  36372.01  8364.32  23.00
1586.0  36009.48  8532.16  23.69
1596.0  35619.37  8648.12  24.28
1606.0  35232.08  8758.54  24.86
1616.0  34829.65  8861.10  25.44
1626.0  34452.68  8956.72  26.00
1636.0  34007.58  9012.56  26.50
1646.0  33523.68  9002.39  26.85
1656.0  33037.62  8945.71  27.08
1666.0  32548.04  8846.28  27.18
1676.0  32123.29  8720.58  27.15
1686.0  32117.51  8625.09  26.85
1696.0  31764.57  8400.11  26.44
1706.0  31316.98  8103.84  25.88
1716.0  30611.05  7704.99  25.17
1726.0  30177.81  7395.49  24.51
1736.0  29812.17  7201.06  24.15
1746.0  29439.81  6986.65  23.73
1756.0  28928.41  6685.55  23.11
1766.0  28491.94  6444.18  22.62
1776.0  28263.25  6313.40  22.34
1786.0  27973.79  6177.38  22.08
1796.0  27612.53  6072.93  21.99
1806.0  27286.01  6006.93  22.01
1816.0  26879.26  5907.03  21.98
1826.0  26408.56  5792.01  21.93
1836.0  25765.82  5610.15  21.77
1846.0  25402.19  5458.80  21.49
1856.0  25067.72  5230.92  20.87
1866.0  24868.79  4742.59  19.07
1876.0  24488.38  3959.71  16.17
1886.0  24233.30  3243.82  13.39
1896.0  23683.96  2822.42  11.92
1906.0  22096.75  1473.23  6.67
1916.0  21802.32  1480.08  6.79
1926.0  21588.87  1477.93  6.85
1936.0  21449.43  1470.22  6.85
1946.0  21420.23  1483.34  6.92
1956.0  21201.75  1501.41  7.08
1966.0  21198.12  1551.66  7.32
1976.0  21006.67  1579.08  7.52
1986.0  20732.55  1624.18  7.83
1996.0  20450.49  1658.73  8.11
2006.0  20269.19  1709.02  8.43
2016.0  19957.87  1739.18  8.71
2026.0  19629.85  1774.00  9.04
2036.0  19319.95  1797.30  9.30
2046.0  19073.35  1824.54  9.57
2056.0  18736.02  1835.16  9.79
2066.0  18425.00  1839.78  9.99
2076.0  18163.31  1868.60  10.29
2086.0  17998.96  1895.78  10.53
2096.0  17698.67  1911.31  10.80
2106.0  17393.37  1927.70  11.08
2116.0  17301.34  1967.32  11.37
2126.0  17117.10  2000.03  11.68
2136.0  16805.93  1988.35  11.83
2146.0  16338.81  1982.30  12.13
2156.0  16108.43  1994.46  12.38
2166.0  15818.08  1978.14  12.51
2176.0  15571.16  1975.41  12.69
2186.0  15407.91  1990.60  12.92
2196.0  15291.27  1984.43  12.98
2206.0  15252.10  1994.83  13.08
2216.0  15137.72  1963.44  12.97
2226.0  14957.58  1926.34  12.88
2236.0  14828.49  1894.61  12.78
2246.0  14572.63  1804.23  12.38
2256.0  14413.52  1733.74  12.03
2266.0  14283.01  1666.03  11.66
2276.0  14142.85  1589.35  11.24
2286.0  14066.30  1538.45  10.94
2296.0  13956.39  1457.07  10.44
2306.0  13536.25  1360.08  10.05
2316.0  13130.37  1304.24  9.93
2326.0  13082.91  1322.56  10.11
2336.0  13030.52  1286.25  9.87
2346.0  12874.44  1232.40  9.57
2356.0  12605.38  1177.73  9.34
2366.0  12490.11  1143.19  9.15
2376.0  12262.88  1113.45  9.08
2386.0  12077.58  1072.00  8.88
2396.0  11871.57  1039.14  8.75
2406.0  11728.43  1029.92  8.78
2416.0  11508.86  974.78  8.47
2426.0  11344.58  951.38  8.39
2436.0  11091.32  914.70  8.25
2446.0  10929.32  854.75  7.82
2456.0  10711.77  833.82  7.78
2466.0  10484.26  783.23  7.47
2476.0  10216.57  773.69  7.57
2486.0  9941.47  745.16  7.50
2496.0  9864.73  747.54  7.58
2506.0  10308.86  743.89  7.22
