/*** Spectra Vista SIG Data ***/
name= S5.sig
comm= SIG file reprocesed for matching/overlap;Averaged Ref/Tar of files: RD3S13,RD3S14,RD3S15
data=
346.4  598.78  193.75  32.36
347.9  627.50  200.80  32.00
349.5  677.04  210.08  31.03
351.1  739.44  216.84  29.32
352.6  790.63  217.69  27.53
354.2  841.03  221.98  26.39
355.7  912.59  239.09  26.20
357.3  974.37  241.57  24.79
358.8  992.58  250.48  25.24
360.4  1062.29  256.78  24.17
361.9  1117.88  263.51  23.57
363.5  1149.55  269.50  23.44
365.1  1196.29  268.15  22.42
366.6  1260.16  271.60  21.55
368.2  1349.72  274.20  20.32
369.7  1403.95  275.35  19.61
371.3  1488.21  284.25  19.10
372.8  1577.00  298.25  18.91
374.4  1638.71  300.93  18.36
375.9  1688.10  310.59  18.40
377.4  1740.09  307.36  17.66
379.0  1788.57  312.42  17.47
380.5  1855.73  308.27  16.61
382.1  1905.98  311.76  16.36
383.6  1973.16  312.80  15.85
385.2  2065.25  313.96  15.20
386.7  2149.76  320.84  14.92
388.3  2271.83  333.35  14.67
389.8  2363.45  349.07  14.77
391.3  2453.59  359.27  14.64
392.9  2526.36  370.32  14.66
394.4  2602.50  386.27  14.84
395.9  2690.98  400.87  14.90
397.5  2829.48  415.06  14.67
399.0  2963.31  426.94  14.41
400.6  3033.76  411.29  13.56
402.1  3072.78  405.06  13.18
403.6  3116.75  402.78  12.92
405.1  3199.00  401.02  12.54
406.7  3304.00  414.77  12.55
408.2  3412.53  424.71  12.45
409.7  3521.28  435.68  12.37
411.3  3642.17  449.82  12.35
412.8  3732.75  458.60  12.29
414.3  3845.02  479.30  12.47
415.8  3965.00  492.08  12.41
417.4  4085.95  496.30  12.15
418.9  4192.21  508.11  12.12
420.4  4267.16  515.53  12.08
421.9  4346.32  518.69  11.93
423.5  4413.15  520.71  11.80
425.0  4492.75  520.30  11.58
426.5  4594.55  523.53  11.39
428.0  4712.54  527.15  11.19
429.5  4856.53  537.20  11.06
431.1  5025.20  547.93  10.90
432.6  5198.44  564.58  10.86
434.1  5370.75  577.82  10.76
435.6  5520.56  593.72  10.75
437.1  5670.60  606.13  10.69
438.6  5806.58  617.99  10.64
440.1  5943.54  626.14  10.53
441.6  6091.61  640.13  10.51
443.1  6230.93  653.40  10.49
444.7  6356.12  665.14  10.46
446.2  6474.98  682.02  10.53
447.7  6582.53  693.99  10.54
449.2  6691.68  703.44  10.51
450.7  6814.08  705.12  10.35
452.2  6930.56  710.02  10.24
453.7  7066.33  719.24  10.18
455.2  7233.85  731.76  10.12
456.7  7443.04  747.12  10.04
458.2  7673.27  768.61  10.02
459.7  7920.50  795.67  10.05
461.2  8156.07  818.67  10.04
462.7  8366.46  837.12  10.01
464.2  8568.06  861.63  10.06
465.7  8788.58  880.86  10.02
467.2  8970.50  903.15  10.07
468.7  9176.00  921.00  10.04
470.2  9305.26  943.16  10.14
471.7  9490.50  968.61  10.21
473.2  9788.42  981.58  10.03
474.6  10042.30  986.98  9.83
476.1  10127.24  988.63  9.76
477.6  10169.21  977.77  9.62
479.1  10224.56  976.08  9.55
480.6  10293.47  977.10  9.49
482.1  10426.95  978.48  9.38
483.6  10590.11  989.28  9.34
485.1  10796.39  1005.38  9.31
486.6  11041.55  1020.35  9.24
488.0  11290.50  1040.54  9.22
489.5  11568.25  1069.94  9.25
491.0  11840.59  1093.81  9.24
492.5  12119.22  1121.85  9.26
494.0  12409.65  1153.77  9.30
495.4  12660.45  1178.65  9.31
496.9  12912.44  1207.13  9.35
498.4  13155.80  1238.35  9.41
499.9  13408.52  1274.67  9.51
501.4  13645.90  1296.25  9.50
502.8  13864.50  1332.92  9.61
504.3  14081.40  1361.40  9.67
505.8  14291.05  1386.46  9.70
507.2  14436.37  1411.80  9.78
508.7  14548.87  1438.85  9.89
510.2  14651.50  1458.31  9.95
511.6  14718.08  1469.99  9.99
513.1  14838.45  1492.88  10.06
514.6  14986.45  1510.51  10.08
516.0  15112.04  1529.98  10.12
517.5  15305.31  1552.96  10.15
519.0  15537.89  1581.55  10.18
520.5  15768.60  1608.57  10.20
521.9  16045.99  1650.66  10.29
523.4  16363.11  1688.84  10.32
524.8  16675.79  1728.18  10.36
526.3  17027.53  1772.71  10.41
527.8  17380.80  1821.42  10.48
529.2  17706.86  1858.41  10.50
530.7  18056.71  1905.51  10.55
532.1  18377.28  1947.34  10.60
533.6  18738.23  1998.12  10.66
535.0  19114.67  2046.08  10.70
536.5  19476.07  2091.53  10.74
538.0  19846.24  2149.12  10.83
539.4  20198.95  2197.78  10.88
540.9  20626.19  2252.85  10.92
542.3  20984.92  2299.89  10.96
543.8  21250.33  2336.94  11.00
545.2  21329.19  2362.69  11.08
546.6  21331.64  2385.60  11.18
548.1  21362.06  2401.92  11.24
549.5  21376.46  2425.51  11.35
551.0  21386.66  2445.78  11.44
552.4  21443.54  2475.56  11.54
553.9  21463.89  2506.90  11.68
555.3  21521.57  2546.51  11.83
556.8  21650.10  2592.37  11.97
558.2  21773.81  2646.28  12.15
559.6  21936.94  2709.27  12.35
561.1  22168.25  2789.05  12.58
562.5  22423.78  2874.62  12.82
564.0  22757.43  2979.01  13.09
565.4  23059.14  3088.91  13.40
566.8  23449.52  3217.45  13.72
568.3  23818.66  3345.49  14.05
569.7  24198.01  3491.00  14.43
571.1  24579.14  3638.84  14.80
572.6  24952.86  3797.82  15.22
574.0  25317.60  3965.23  15.66
575.4  25678.69  4135.78  16.11
576.9  26008.29  4319.12  16.61
578.3  26306.64  4505.69  17.13
579.7  26593.28  4702.43  17.68
581.1  26823.10  4894.06  18.25
582.6  27065.10  5099.06  18.84
584.0  27286.52  5309.54  19.46
585.4  27587.92  5534.51  20.06
586.8  27978.96  5790.85  20.70
588.3  28419.30  6059.43  21.32
589.7  28786.68  6325.02  21.97
591.1  29016.81  6565.61  22.63
592.5  29127.43  6799.57  23.34
594.0  29186.34  7015.20  24.04
595.4  29194.56  7223.07  24.74
596.8  29193.45  7441.01  25.49
598.2  29177.08  7651.92  26.23
599.6  29153.88  7861.52  26.97
601.0  29216.28  8089.73  27.69
602.4  29261.60  8318.04  28.43
603.9  29364.60  8557.48  29.14
605.3  29484.10  8807.03  29.87
606.7  29584.80  9051.60  30.60
608.1  29785.49  9323.88  31.30
609.5  30013.28  9606.27  32.01
610.9  30296.78  9905.44  32.69
612.3  30557.28  10199.32  33.38
613.7  30914.00  10521.69  34.04
615.1  31159.08  10802.16  34.67
616.5  31406.64  11085.20  35.30
617.9  31801.61  11431.70  35.95
619.3  32170.62  11782.04  36.62
620.7  32635.92  12171.18  37.29
622.1  33083.75  12546.89  37.92
623.5  33564.04  12949.39  38.58
624.9  34116.86  13375.47  39.20
626.3  34490.69  13739.22  39.83
627.7  34145.81  13822.14  40.48
629.1  33851.16  13908.48  41.09
630.5  33743.57  14060.50  41.67
631.9  33775.53  14275.38  42.27
633.3  33808.52  14468.34  42.79
634.7  33992.91  14694.34  43.23
636.1  34075.08  14823.04  43.50
637.5  34196.58  14935.39  43.68
638.9  34374.61  15042.16  43.76
640.2  34545.58  15131.82  43.80
641.6  34634.34  15151.89  43.75
643.0  34657.83  15092.81  43.55
644.4  34696.37  15009.47  43.26
645.8  34653.86  14861.64  42.89
647.2  34834.41  14825.76  42.56
648.5  34958.93  14809.93  42.36
649.9  34861.32  14744.41  42.29
651.3  34789.65  14734.75  42.35
652.7  34680.00  14699.05  42.38
654.1  34452.30  14441.02  41.92
655.5  34172.42  14101.28  41.27
656.8  33904.63  13759.40  40.58
658.2  34070.04  13580.19  39.86
659.6  34442.82  13475.65  39.12
660.9  34748.70  13320.58  38.33
662.3  35067.95  13135.45  37.46
663.7  35364.00  12937.75  36.58
665.0  35617.00  12725.47  35.73
666.4  35877.31  12521.82  34.90
667.8  36209.10  12379.32  34.19
669.1  36482.80  12235.58  33.54
670.5  36799.72  12149.47  33.02
671.9  36995.40  12071.02  32.63
673.2  37270.13  12070.61  32.39
674.6  37530.47  12105.66  32.26
676.0  37841.78  12221.88  32.30
677.3  38141.57  12402.40  32.52
678.7  38483.75  12673.50  32.93
680.0  38922.37  13094.28  33.64
681.4  39389.45  13683.45  34.74
682.8  39844.35  14434.88  36.23
684.1  40287.78  15383.55  38.18
685.5  40705.56  16511.58  40.56
686.8  41091.84  17802.61  43.32
688.2  41433.89  19195.43  46.33
689.5  41549.57  20582.70  49.54
690.9  41633.44  22004.49  52.85
692.2  41697.60  23388.18  56.09
693.6  41771.65  24749.78  59.25
694.9  41721.88  25989.52  62.29
696.2  41751.90  27189.45  65.12
697.6  41766.04  28291.20  67.74
698.9  41796.48  29331.28  70.18
700.3  41844.24  30291.15  72.39
701.6  41918.48  31159.83  74.33
703.0  41979.40  31964.33  76.14
704.3  41981.71  32625.13  77.71
705.6  41967.18  33215.42  79.15
707.0  41980.75  33753.18  80.40
708.3  41872.71  34154.70  81.57
709.6  41753.67  34506.54  82.64
711.0  41589.99  34762.37  83.58
712.3  41418.66  34979.61  84.45
713.6  41354.04  35247.66  85.23
714.9  41240.96  35450.27  85.96
716.3  41218.54  35693.16  86.59
717.6  41221.95  35945.42  87.20
718.9  41134.56  36064.16  87.67
720.2  40936.00  36065.82  88.10
721.6  40765.66  36086.31  88.52
722.9  40572.15  36069.22  88.90
724.2  40305.71  35986.16  89.28
725.5  40134.57  35949.34  89.57
726.8  39960.91  35884.47  89.80
728.1  39855.98  35873.28  90.01
729.5  39766.23  35846.38  90.14
730.8  39707.44  35839.35  90.26
732.1  39612.07  35794.13  90.36
733.4  39556.45  35779.69  90.45
734.7  39507.57  35749.59  90.49
736.0  39511.29  35789.62  90.58
737.3  39463.58  35794.65  90.70
738.6  39569.04  35933.10  90.81
739.9  39770.92  36169.25  90.94
741.2  39928.98  36352.68  91.04
742.5  40206.42  36680.42  91.23
743.8  40696.43  37185.23  91.37
745.1  41398.16  37916.10  91.59
746.4  42245.84  38724.29  91.66
747.7  43136.62  39521.51  91.62
749.0  43980.49  40269.89  91.56
750.3  44484.44  40656.04  91.39
751.6  44396.66  40525.81  91.28
752.9  43969.12  40118.71  91.24
754.2  43470.53  39688.76  91.30
755.4  42928.75  39270.31  91.48
756.7  42746.48  39189.40  91.68
758.0  42774.71  39291.42  91.86
759.3  43048.01  39627.93  92.06
760.6  43418.76  40048.21  92.24
761.9  43775.94  40436.57  92.37
763.1  43996.61  40678.08  92.46
764.4  44239.34  40953.57  92.57
765.7  44424.25  41154.75  92.64
767.0  44583.75  41324.18  92.69
768.2  44688.00  41480.88  92.82
769.5  44782.92  41606.36  92.91
770.8  44990.42  41834.12  92.98
772.0  45014.41  41899.54  93.08
773.3  45100.97  42014.75  93.16
774.6  45226.84  42157.24  93.21
775.8  45313.45  42261.78  93.27
777.1  45344.81  42313.59  93.32
778.4  45245.88  42282.73  93.45
779.6  45226.44  42298.59  93.53
780.9  45132.00  42270.67  93.66
782.1  44952.26  42151.73  93.77
783.4  44936.32  42178.24  93.86
784.6  44935.72  42257.15  94.04
785.9  45255.62  42620.50  94.18
787.1  45836.93  43258.79  94.38
788.4  46288.94  43661.76  94.32
789.6  46219.23  43488.47  94.09
790.9  45788.99  42969.46  93.84
792.1  45296.16  42517.00  93.86
793.4  44771.54  42088.53  94.01
794.6  44415.30  41785.55  94.08
795.8  44134.47  41528.83  94.10
797.1  43801.05  41271.84  94.23
798.3  43569.08  41109.00  94.35
799.5  43411.48  41008.52  94.46
800.8  43273.13  40893.92  94.50
802.0  43071.08  40759.85  94.63
803.2  42890.28  40597.13  94.65
804.5  42742.15  40492.96  94.74
805.7  42601.95  40350.50  94.72
806.9  42426.40  40210.66  94.78
808.1  42305.67  40122.21  94.84
809.4  42221.44  40044.95  94.85
810.6  42105.70  39963.41  94.91
811.8  42062.43  39943.07  94.96
813.0  42071.08  39963.15  94.99
814.2  42081.20  39994.98  95.04
815.4  42185.03  40064.65  94.97
816.6  42225.34  40080.04  94.92
817.9  42273.21  40061.25  94.77
819.1  42166.58  39946.24  94.73
820.3  42039.03  39760.39  94.58
821.5  41905.07  39607.51  94.52
822.7  41849.58  39498.48  94.38
823.9  41838.35  39453.47  94.30
825.1  41851.34  39403.03  94.15
826.3  41890.94  39364.55  93.97
827.5  41937.05  39333.60  93.79
828.7  42011.28  39295.04  93.53
829.9  42039.57  39242.72  93.35
831.0  42140.75  39245.13  93.13
832.2  42235.78  39261.98  92.96
833.4  42305.18  39277.18  92.84
834.6  42417.19  39308.59  92.67
835.8  42496.65  39336.42  92.56
837.0  42597.61  39415.31  92.53
838.1  42745.68  39544.45  92.51
839.3  42856.00  39610.15  92.43
840.5  42989.60  39716.90  92.39
841.7  43156.80  39869.26  92.38
842.9  43298.86  40011.88  92.41
844.0  43430.88  40126.52  92.39
845.2  43568.90  40271.57  92.43
846.4  43732.15  40400.31  92.38
847.5  43960.00  40603.47  92.36
848.7  44164.79  40794.29  92.37
849.9  44393.85  40942.08  92.22
851.0  44478.08  40969.05  92.11
852.2  44569.63  40999.31  91.99
853.3  44562.81  40973.54  91.95
854.5  44594.90  40949.51  91.83
855.6  44615.97  40953.75  91.79
856.8  44687.86  40991.73  91.73
857.9  44681.40  41013.14  91.79
859.1  44832.20  41135.97  91.76
860.2  44876.88  41132.95  91.66
861.4  44954.55  41197.73  91.64
862.5  45021.69  41238.67  91.60
863.7  45150.84  41336.93  91.55
864.8  45213.35  41361.89  91.48
865.9  45167.77  41308.20  91.46
867.1  45241.43  41340.64  91.38
868.2  45295.54  41351.15  91.29
869.3  45314.27  41334.07  91.22
870.5  45282.48  41267.54  91.13
871.6  45315.83  41260.10  91.05
872.7  45413.27  41331.68  91.01
873.9  45478.16  41326.90  90.87
875.0  45456.71  41255.77  90.76
876.1  45452.45  41234.05  90.72
877.2  45498.99  41228.98  90.62
878.3  45519.98  41187.02  90.48
879.4  45563.53  41162.49  90.34
880.5  45631.08  41170.92  90.23
881.7  45596.20  41072.63  90.08
882.8  45693.96  41083.50  89.91
883.9  45722.91  41030.35  89.74
885.0  45675.63  40900.75  89.55
886.1  45712.78  40791.65  89.23
887.2  45537.58  40582.12  89.12
888.3  45475.07  40386.82  88.81
889.4  45347.40  40226.32  88.71
890.5  45259.13  40081.26  88.56
891.6  45193.70  39966.67  88.43
892.7  45201.31  39872.34  88.21
893.8  45270.56  39871.04  88.07
894.9  45248.28  39825.06  88.01
896.0  45235.90  39721.75  87.81
897.0  45257.72  39685.90  87.69
898.1  45230.13  39646.79  87.66
899.2  45252.30  39575.14  87.45
900.3  45165.90  39428.61  87.30
901.4  45101.16  39282.82  87.10
902.4  45077.20  39235.79  87.04
903.5  45018.01  39121.78  86.90
904.6  45035.56  39031.77  86.67
905.7  45038.93  38976.49  86.54
906.7  44985.82  38885.25  86.44
907.8  45025.57  38857.84  86.30
908.9  44904.57  38675.65  86.13
909.9  44897.74  38586.28  85.94
911.0  44830.08  38466.65  85.81
912.1  44749.25  38328.64  85.65
913.1  44707.00  38146.68  85.33
914.2  44554.62  37961.11  85.20
915.2  44505.45  37863.77  85.08
916.3  44491.35  37764.55  84.88
917.3  44461.10  37625.08  84.62
918.4  44383.35  37413.48  84.30
919.4  44330.69  37271.87  84.08
920.5  44315.70  37132.91  83.79
921.5  44285.78  37019.55  83.59
922.6  44268.10  36823.37  83.18
923.6  44262.16  36716.63  82.95
924.7  44333.00  36598.38  82.55
925.7  44276.22  36395.48  82.20
926.7  44252.98  36263.16  81.95
927.8  44374.33  36084.62  81.32
928.8  44502.63  36020.61  80.94
929.9  44598.23  35908.45  80.52
930.9  44802.27  35875.69  80.08
931.9  45011.35  35856.47  79.66
932.9  45355.12  35892.08  79.14
934.0  45370.16  35732.51  78.76
935.0  45397.97  35567.44  78.35
936.0  45413.73  35339.56  77.82
937.0  45319.95  35108.10  77.47
938.1  45295.44  34875.42  77.00
939.1  45257.91  34688.52  76.65
940.1  45342.90  34514.02  76.12
941.1  45568.46  34471.61  75.65
942.1  45803.34  34463.94  75.24
943.1  45999.43  34405.51  74.80
944.1  46171.28  34348.81  74.39
945.2  46338.18  34138.44  73.67
946.2  46411.22  33997.07  73.25
947.2  46518.25  33816.46  72.70
948.2  46693.82  33685.54  72.14
949.2  46838.19  33502.22  71.53
950.2  46912.95  33293.82  70.97
951.2  46909.80  33067.72  70.49
952.2  47054.57  32895.10  69.91
953.2  47260.85  32727.21  69.25
954.2  47365.65  32587.13  68.80
955.2  47408.68  32379.03  68.30
956.2  47434.65  32184.07  67.85
957.2  47543.77  32020.47  67.35
958.2  47601.59  31889.32  66.99
959.2  47735.55  31776.53  66.57
960.1  47775.14  31711.10  66.38
961.1  47870.63  31696.16  66.21
962.1  47933.44  31626.10  65.98
963.1  48032.50  31596.01  65.78
964.1  48057.21  31617.90  65.79
965.1  48243.99  31609.56  65.52
966.1  48335.33  31577.64  65.33
967.0  48410.39  31632.98  65.34
968.0  48434.88  31659.37  65.36
969.0  48556.60  31622.07  65.12
970.0  48603.65  31677.72  65.18
971.0  48737.12  31735.71  65.12
971.9  48722.90  31702.56  65.07
972.9  48879.95  31795.74  65.05
973.9  48859.53  31794.21  65.07
974.9  49044.08  31888.08  65.02
975.8  49101.73  31963.43  65.10
976.8  49135.91  31972.33  65.07
977.8  49315.41  32069.88  65.03
978.8  49372.50  32199.95  65.22
979.7  49504.50  32300.16  65.25
981.4  50850.20  29008.97  57.05
985.3  50481.20  29274.72  57.99
989.3  50535.22  29694.73  58.76
993.3  50635.09  30105.15  59.46
997.2  50595.02  30391.18  60.07
1001.2  50545.04  30667.39  60.67
1005.2  50473.33  30972.47  61.36
1009.1  50535.74  31396.56  62.13
1013.1  50697.93  31925.82  62.97
1017.1  50843.90  32448.75  63.82
1021.0  50855.49  32881.32  64.66
1025.0  50816.26  33292.78  65.52
1029.0  50641.08  33583.83  66.32
1032.9  50496.42  33888.14  67.11
1036.9  50486.34  34306.70  67.95
1040.9  50614.23  34780.35  68.72
1044.8  50848.91  35299.26  69.42
1048.8  51055.33  35767.55  70.06
1052.7  51200.97  36153.21  70.61
1056.7  51265.76  36440.69  71.08
1060.7  51328.86  36638.26  71.38
1064.6  51364.29  36792.66  71.63
1068.6  51285.22  36817.59  71.79
1072.5  51205.93  36759.90  71.79
1076.5  51155.97  36692.06  71.73
1080.4  51154.95  36593.63  71.53
1084.4  51258.31  36512.59  71.23
1088.3  51367.47  36390.55  70.84
1092.3  51376.13  36121.05  70.31
1096.2  51342.58  35806.79  69.74
1100.2  51360.86  35510.63  69.14
1104.1  51244.60  35114.24  68.52
1108.1  51175.76  34743.69  67.89
1112.0  51059.75  34309.50  67.19
1116.0  50831.30  33768.59  66.43
1119.9  50653.13  33162.49  65.47
1123.9  50703.41  32586.40  64.27
1127.8  50649.60  31729.92  62.65
1131.8  50608.23  30629.86  60.52
1135.7  50617.81  29352.08  57.99
1139.6  50606.06  27945.99  55.22
1143.6  50555.26  26602.08  52.62
1147.5  50517.05  25449.62  50.38
1151.4  50365.69  24497.55  48.64
1155.4  50355.11  23890.87  47.44
1159.3  50376.78  23488.56  46.63
1163.2  50207.59  23138.07  46.08
1167.2  50161.80  22954.54  45.76
1171.1  50174.37  22826.40  45.49
1175.0  50101.08  22683.08  45.27
1179.0  50065.70  22556.87  45.05
1182.9  50165.17  22499.52  44.85
1186.8  50159.61  22392.29  44.64
1190.7  49934.95  22194.86  44.45
1194.7  49665.47  22012.89  44.32
1198.6  49438.62  21880.32  44.26
1202.5  49264.40  21812.01  44.28
1206.4  49122.14  21784.32  44.35
1210.3  49037.26  21801.54  44.46
1214.2  48930.30  21842.61  44.64
1218.2  48765.56  21888.71  44.89
1222.1  48630.48  21955.60  45.15
1226.0  48538.40  22043.26  45.41
1229.9  48450.48  22129.62  45.67
1233.8  48352.03  22198.79  45.91
1237.7  48317.50  22274.75  46.10
1241.6  48229.08  22334.94  46.31
1245.5  48061.09  22360.43  46.53
1249.4  47934.98  22377.64  46.68
1253.3  47803.87  22386.26  46.83
1257.2  47735.46  22404.08  46.93
1261.1  47624.11  22384.19  47.00
1265.0  47490.52  22332.01  47.02
1268.9  47304.07  22226.14  46.99
1272.8  47372.70  22218.60  46.90
1276.7  47590.81  22243.39  46.74
1280.6  47691.16  22183.43  46.51
1284.5  47615.01  22000.91  46.21
1288.4  47591.67  21811.81  45.83
1292.3  47467.75  21552.67  45.40
1296.2  47318.59  21241.57  44.89
1300.1  47148.87  20881.26  44.29
1303.9  46897.39  20443.60  43.59
1307.8  46639.44  19974.64  42.83
1311.7  46386.67  19467.91  41.97
1315.6  46123.85  18933.01  41.05
1319.5  45848.18  18367.27  40.06
1323.3  45606.50  17790.02  39.01
1327.2  45386.16  17217.88  37.94
1331.1  45132.53  16641.20  36.87
1335.0  44824.46  16052.42  35.81
1338.8  44600.56  15516.95  34.79
1342.7  44421.07  15035.85  33.85
1346.5  44042.02  14505.83  32.94
1350.4  43720.62  14017.42  32.06
1354.3  43279.60  13528.32  31.26
1358.1  42799.92  13051.31  30.49
1362.0  42533.76  12648.27  29.74
1365.8  42447.40  12286.32  28.94
1369.7  42569.31  11924.41  28.01
1373.5  42515.11  11421.73  26.87
1377.4  42239.08  10752.18  25.46
1381.2  42024.35  9986.72  23.76
1385.1  42007.68  9223.94  21.96
1389.0  41913.21  8444.84  20.15
1392.8  41686.58  7668.09  18.39
1396.6  41522.45  6978.93  16.81
1400.5  41297.26  6384.62  15.46
1404.3  41119.22  5910.05  14.37
1408.2  41089.83  5549.54  13.51
1412.0  41038.18  5270.10  12.84
1415.8  41063.56  5063.62  12.33
1419.6  41020.11  4902.85  11.95
1423.5  40984.07  4781.44  11.67
1427.3  40938.38  4688.47  11.45
1431.1  40915.35  4625.98  11.31
1434.9  40812.08  4565.34  11.19
1438.8  40755.58  4529.69  11.11
1442.6  40720.04  4500.60  11.05
1446.4  40579.53  4465.55  11.00
1450.2  40476.97  4449.69  10.99
1454.0  40349.16  4436.88  11.00
1457.8  40313.93  4438.41  11.01
1461.6  40291.52  4456.09  11.06
1465.4  40157.17  4472.79  11.14
1469.2  39958.10  4493.89  11.25
1473.0  39808.79  4538.82  11.40
1476.8  39739.71  4615.99  11.62
1480.7  39668.27  4703.86  11.86
1484.4  39532.92  4799.40  12.14
1488.2  39418.92  4918.72  12.48
1492.0  39281.08  5042.97  12.84
1495.8  39157.30  5159.70  13.18
1499.6  39041.55  5251.57  13.45
1503.4  38891.42  5323.42  13.69
1507.2  38758.78  5385.48  13.89
1510.9  38603.27  5431.08  14.07
1514.7  38431.80  5472.34  14.24
1518.5  38296.78  5533.46  14.45
1522.3  38148.01  5610.59  14.71
1526.0  38038.86  5698.53  14.98
1529.8  37977.87  5798.63  15.27
1533.6  37845.65  5888.16  15.56
1537.3  37710.11  5963.28  15.81
1541.1  37580.52  6046.75  16.09
1544.8  37449.60  6136.80  16.39
1548.6  37314.89  6223.96  16.68
1552.4  37219.38  6309.98  16.95
1556.1  37135.69  6379.27  17.18
1559.9  37030.39  6436.67  17.38
1563.6  36900.49  6506.84  17.63
1567.3  36782.10  6603.57  17.95
1571.1  36560.28  6680.03  18.27
1574.8  36404.14  6770.33  18.60
1578.6  36302.38  6856.74  18.89
1582.3  36157.52  6905.01  19.10
1586.0  36009.48  6940.41  19.27
1589.8  35863.84  6984.62  19.48
1593.5  35710.53  7021.85  19.66
1597.2  35575.62  7059.74  19.84
1600.9  35432.24  7097.66  20.03
1604.7  35280.85  7133.71  20.22
1608.4  35142.04  7177.90  20.43
1612.1  34980.47  7212.20  20.62
1615.8  34834.07  7245.27  20.80
1619.5  34752.20  7294.27  20.99
1623.2  34595.03  7324.88  21.17
1626.9  34406.93  7341.89  21.34
1630.6  34230.90  7361.64  21.51
1634.3  34081.71  7386.19  21.67
1638.0  33920.36  7400.16  21.82
1641.7  33748.10  7402.96  21.94
1645.4  33556.70  7403.05  22.06
1649.1  33353.05  7385.86  22.14
1652.8  33189.89  7369.21  22.20
1656.4  33018.59  7348.22  22.25
1660.1  32845.97  7325.35  22.30
1663.8  32642.92  7292.69  22.34
1667.5  32483.35  7271.11  22.38
1671.1  32351.26  7243.94  22.39
1674.8  32144.07  7191.08  22.37
1678.5  32080.00  7170.70  22.35
1682.1  32102.13  7148.63  22.27
1685.8  32123.16  7120.18  22.17
1689.5  32018.65  7069.31  22.08
1693.1  31881.24  7000.98  21.96
1696.8  31732.38  6935.79  21.86
1700.4  31582.94  6858.57  21.72
1704.0  31466.76  6772.55  21.52
1707.7  31189.67  6654.56  21.34
1711.3  30882.00  6528.09  21.14
1715.0  30659.79  6419.04  20.94
1718.6  30484.31  6311.86  20.71
1722.2  30333.58  6215.05  20.49
1725.9  30181.80  6122.58  20.29
1729.5  30037.98  6039.65  20.11
1733.1  29910.73  5981.51  20.00
1736.7  29788.38  5932.73  19.92
1740.3  29614.18  5858.97  19.78
1744.0  29528.30  5795.13  19.63
1747.5  29373.44  5709.71  19.44
1751.2  29138.63  5599.02  19.22
1754.8  28975.37  5501.40  18.99
1758.4  28834.48  5417.24  18.79
1762.0  28639.33  5332.25  18.62
1765.5  28498.38  5265.36  18.48
1769.1  28452.00  5231.20  18.39
1772.7  28378.96  5189.82  18.29
1776.3  28252.73  5131.03  18.16
1779.9  28119.54  5080.55  18.07
1783.5  28061.20  5048.45  17.99
1787.0  27938.82  5005.50  17.92
1790.6  27774.17  4962.57  17.87
1794.2  27666.21  4937.08  17.85
1797.8  27558.84  4915.60  17.84
1801.3  27465.68  4899.52  17.84
1804.9  27315.75  4872.00  17.84
1808.4  27221.13  4860.25  17.85
1812.0  27071.27  4831.80  17.85
1815.5  26907.62  4796.43  17.83
1819.1  26703.43  4762.24  17.83
1822.6  26545.43  4731.12  17.82
1826.2  26400.51  4694.66  17.78
1829.7  26207.46  4648.10  17.74
1833.2  25952.41  4587.28  17.68
1836.8  25712.51  4531.20  17.62
1840.3  25567.16  4491.69  17.57
1843.8  25454.03  4449.85  17.48
1847.3  25371.56  4412.60  17.39
1850.8  25264.51  4361.28  17.26
1854.3  25105.60  4281.96  17.06
1857.8  25027.60  4179.07  16.70
1861.3  25027.70  4038.58  16.14
1864.8  24948.54  3862.44  15.48
1868.3  24715.93  3630.88  14.69
1871.8  24529.92  3374.08  13.75
1875.3  24489.01  3132.68  12.79
1878.8  24485.84  2928.61  11.96
1882.3  24423.29  2744.16  11.24
1885.8  24245.59  2564.57  10.58
1889.3  24030.42  2407.77  10.02
1892.7  23852.68  2290.23  9.60
1896.2  23673.74  2231.67  9.43
1899.7  23427.69  2228.09  9.51
1901.7  21937.94  1248.17  5.69
1904.5  22143.94  1246.68  5.63
1907.2  22059.00  1255.58  5.69
1910.0  21927.95  1236.47  5.64
1912.7  21918.25  1233.03  5.63
1915.5  21816.04  1248.17  5.72
1918.2  21741.95  1247.65  5.74
1921.0  21589.30  1214.88  5.63
1923.7  21620.81  1217.28  5.63
1926.5  21581.93  1220.16  5.65
1929.2  21568.04  1205.71  5.59
1932.0  21551.20  1210.28  5.62
1934.7  21508.34  1216.27  5.65
1937.4  21385.99  1207.58  5.65
1940.2  21322.79  1214.99  5.70
1942.9  21412.44  1223.08  5.71
1945.6  21432.94  1208.00  5.64
1948.3  21347.13  1224.39  5.74
1951.1  21319.83  1232.09  5.78
1953.8  21321.00  1235.00  5.79
1956.5  21174.65  1244.93  5.88
1959.2  21255.91  1246.83  5.87
1961.9  21274.22  1247.63  5.86
1964.6  21161.18  1244.54  5.88
1967.3  21232.43  1265.78  5.96
1970.0  21063.36  1269.84  6.03
1972.8  20962.32  1267.86  6.05
1975.5  21019.32  1284.81  6.11
1978.2  20951.00  1282.85  6.12
1980.9  20833.51  1287.46  6.18
1983.5  20753.87  1301.97  6.27
1986.2  20730.84  1307.56  6.31
1988.9  20710.47  1319.20  6.37
1991.6  20560.54  1317.02  6.41
1994.3  20429.18  1304.57  6.39
1997.0  20463.02  1337.87  6.54
1999.7  20411.81  1358.30  6.65
2002.3  20392.69  1350.11  6.62
2005.0  20300.64  1366.42  6.73
2007.7  20215.73  1368.36  6.77
2010.4  20150.59  1365.64  6.78
2013.0  20054.41  1388.36  6.92
2015.7  19971.23  1377.26  6.90
2018.4  19850.99  1371.06  6.91
2021.0  19776.67  1407.22  7.12
2023.7  19665.12  1402.97  7.13
2026.4  19623.72  1400.82  7.14
2029.0  19549.52  1411.46  7.22
2031.7  19389.93  1411.15  7.28
2034.3  19392.75  1418.66  7.32
2037.0  19277.12  1436.59  7.45
2039.6  19203.81  1436.68  7.48
2042.3  19169.68  1426.64  7.44
2044.9  19085.22  1438.97  7.54
2047.5  19057.17  1446.45  7.59
2050.2  18939.20  1431.73  7.56
2052.8  18894.40  1454.13  7.70
2055.4  18768.37  1464.34  7.80
2058.1  18622.80  1450.40  7.79
2060.7  18569.98  1459.92  7.86
2063.3  18475.60  1463.00  7.92
2065.9  18427.79  1465.63  7.95
2068.6  18352.42  1470.28  8.01
2071.2  18299.61  1483.35  8.11
2073.8  18217.15  1475.66  8.10
2076.4  18153.52  1485.66  8.18
2079.0  18135.74  1493.98  8.24
2081.6  18151.63  1478.88  8.15
2084.2  18112.28  1494.54  8.25
2086.8  17948.60  1507.50  8.40
2089.4  17865.33  1499.65  8.39
2092.1  17782.00  1504.50  8.46
2094.7  17712.75  1512.32  8.54
2097.2  17685.67  1511.11  8.54
2099.8  17677.80  1526.76  8.64
2102.4  17557.58  1524.97  8.69
2105.0  17419.20  1520.95  8.73
2107.6  17352.05  1537.15  8.86
2110.2  17317.12  1539.24  8.89
2112.8  17308.85  1537.61  8.88
2115.3  17299.79  1555.91  8.99
2117.9  17305.54  1572.70  9.09
2120.5  17283.04  1559.53  9.02
2123.1  17169.75  1565.85  9.12
2125.6  17130.75  1573.49  9.19
2128.2  17041.98  1566.74  9.19
2130.8  16938.68  1570.73  9.27
2133.3  16907.73  1575.20  9.32
2135.9  16811.63  1582.62  9.41
2138.4  16669.29  1577.45  9.46
2141.0  16557.51  1559.28  9.42
2143.6  16519.94  1571.38  9.51
2146.1  16331.26  1594.54  9.76
2148.7  16166.35  1575.03  9.74
2151.2  16200.80  1568.36  9.68
2153.8  16223.65  1597.25  9.85
2156.3  16092.71  1580.03  9.82
2158.8  16012.97  1565.27  9.78
2161.4  15977.02  1582.27  9.90
2163.9  15879.72  1586.20  9.99
2166.4  15806.34  1568.02  9.92
2169.0  15776.77  1567.03  9.93
2171.5  15691.03  1564.08  9.97
2174.0  15580.08  1553.94  9.97
2176.5  15568.93  1565.76  10.06
2179.1  15528.15  1572.09  10.12
2181.6  15436.46  1572.54  10.19
2184.1  15393.84  1562.59  10.15
2186.6  15412.36  1569.17  10.18
2189.1  15330.96  1578.25  10.29
2191.6  15265.13  1575.62  10.32
2194.1  15289.63  1561.18  10.21
2196.6  15291.79  1570.39  10.27
2199.2  15355.64  1588.36  10.34
2201.7  15282.97  1572.35  10.29
2204.1  15217.08  1558.85  10.24
2206.6  15263.16  1575.30  10.32
2209.1  15196.78  1578.35  10.39
2211.6  15154.34  1579.77  10.42
2214.1  15142.04  1580.23  10.44
2216.6  15136.36  1552.25  10.26
2219.1  15121.17  1550.99  10.26
2221.6  15017.30  1569.61  10.45
2224.0  14973.30  1550.67  10.36
2226.5  14953.65  1519.47  10.16
2229.0  14990.65  1536.62  10.25
2231.5  14856.57  1543.49  10.39
2233.9  14819.93  1509.83  10.19
2236.4  14830.12  1491.25  10.06
2238.9  14725.00  1484.13  10.08
2241.3  14738.24  1466.57  9.95
2243.8  14703.26  1465.28  9.97
2246.2  14560.76  1436.95  9.87
2248.7  14543.49  1407.68  9.68
2251.2  14547.02  1425.88  9.80
2253.6  14461.44  1420.80  9.82
2256.1  14411.52  1390.08  9.65
2258.5  14448.51  1386.84  9.60
2260.9  14358.24  1369.10  9.54
2263.4  14286.28  1348.54  9.44
2265.8  14286.52  1342.49  9.40
2268.3  14242.68  1334.09  9.37
2270.7  14293.95  1307.59  9.15
2273.1  14208.68  1302.63  9.17
2275.6  14138.88  1288.96  9.12
2278.0  14162.68  1268.30  8.96
2280.4  14119.54  1280.21  9.07
2282.8  13992.20  1258.29  8.99
2285.3  14040.77  1241.68  8.84
2287.7  14128.29  1249.60  8.84
2290.1  13998.75  1213.67  8.67
2292.5  13976.47  1191.83  8.53
2294.9  14012.61  1213.16  8.66
2297.3  13889.96  1178.59  8.49
2299.7  13787.58  1125.28  8.16
2302.1  13749.17  1143.15  8.31
2304.5  13602.40  1127.65  8.29
2306.9  13496.56  1097.60  8.13
2309.3  13451.64  1099.74  8.18
2311.7  13329.30  1066.29  8.00
2314.1  13154.03  1067.29  8.11
2316.5  13124.14  1083.50  8.26
2318.9  13145.46  1078.70  8.21
2321.3  13101.23  1064.37  8.12
2323.7  13118.10  1079.53  8.23
2326.1  13081.38  1081.38  8.27
2328.4  13108.17  1063.19  8.11
2330.8  13202.52  1078.40  8.17
2333.2  13104.54  1062.53  8.11
2335.6  13023.78  1039.30  7.98
2337.9  13062.53  1032.21  7.90
2340.3  13002.24  1020.20  7.85
2342.7  12902.35  991.62  7.69
2345.0  12884.39  1000.80  7.77
2347.4  12860.50  1004.42  7.81
2349.7  12661.22  966.82  7.64
2352.1  12633.43  974.88  7.72
2354.4  12658.59  977.16  7.72
2356.8  12578.77  958.30  7.62
2359.2  12527.67  938.89  7.49
2361.5  12479.13  927.94  7.44
2363.8  12494.29  919.32  7.36
2366.2  12489.73  919.44  7.36
2368.5  12451.10  927.08  7.45
2370.9  12453.76  930.45  7.47
2373.2  12415.30  936.81  7.55
2375.5  12276.33  909.53  7.41
2377.9  12211.78  902.55  7.39
2380.2  12242.21  905.64  7.40
2382.5  12139.99  877.65  7.23
2384.8  12068.64  855.31  7.09
2387.2  12086.52  872.03  7.21
2389.5  12068.58  864.07  7.16
2391.8  12016.43  863.52  7.19
2394.1  11909.46  873.30  7.33
2396.4  11863.59  853.16  7.19
2398.7  11940.46  839.55  7.03
2401.0  11823.50  850.54  7.19
2403.3  11693.04  844.94  7.23
2405.6  11741.09  813.07  6.92
2407.9  11668.29  814.96  6.98
2410.2  11575.79  810.49  7.00
2412.5  11525.22  802.90  6.97
2414.8  11512.67  807.91  7.02
2417.1  11505.36  798.34  6.94
2419.4  11477.63  784.97  6.84
2421.7  11364.91  797.26  7.02
2424.0  11316.90  781.93  6.91
2426.2  11347.35  756.13  6.66
2428.5  11281.78  755.37  6.70
2430.8  11243.35  748.47  6.66
2433.1  11179.50  739.40  6.61
2435.4  11100.48  751.60  6.77
2437.6  11066.91  734.81  6.64
2439.9  10932.41  714.98  6.54
2442.2  10967.11  735.69  6.71
2444.4  10975.51  719.83  6.56
2446.7  10909.12  710.53  6.51
2448.9  10931.40  730.34  6.68
2451.2  10853.16  705.27  6.50
2453.4  10787.73  672.98  6.24
2455.7  10721.98  697.37  6.50
2457.9  10647.12  693.94  6.52
2460.2  10665.45  643.22  6.03
2462.4  10576.80  684.32  6.47
2464.7  10503.38  679.20  6.47
2466.9  10471.02  629.16  6.01
2469.2  10480.86  665.45  6.35
2471.4  10359.57  658.69  6.36
2473.6  10250.05  620.41  6.05
2475.9  10220.96  638.95  6.25
2478.1  10124.53  637.62  6.30
2480.3  10080.49  621.91  6.17
2482.5  10057.71  619.52  6.16
2484.8  9961.32  601.95  6.04
2487.0  9924.93  617.22  6.22
2489.2  9935.52  648.30  6.53
2491.4  9875.23  622.49  6.30
2493.6  9884.14  580.04  5.87
2495.8  9866.24  601.79  6.10
2498.0  9849.60  602.60  6.12
2500.2  9865.68  595.37  6.03
2502.4  10096.56  609.76  6.04
2504.6  10244.49  632.26  6.17
2506.8  10345.65  672.18  6.50
