/*** Spectra Vista SIG Data ***/
name= RS.sig
comm= SIG file reprocesed for matching/overlap;Averaged Ref/Tar of files: RS1,RS2,RS3
data=
346.4  468.20  138.55  29.59
347.9  473.76  137.00  28.92
349.5  521.04  139.36  26.75
351.1  558.48  140.92  25.23
352.6  585.06  141.26  24.14
354.2  625.05  146.72  23.47
355.7  673.50  157.15  23.33
357.3  724.71  160.66  22.17
358.8  751.43  164.85  21.94
360.4  798.47  165.32  20.70
361.9  821.87  164.84  20.06
363.5  851.78  164.47  19.31
365.1  887.68  165.86  18.68
366.6  918.37  169.17  18.42
368.2  973.68  167.88  17.24
369.7  1008.89  163.80  16.24
371.3  1073.36  166.82  15.54
372.8  1148.72  168.77  14.69
374.4  1191.49  173.55  14.57
375.9  1247.87  174.33  13.97
377.4  1278.23  177.26  13.87
379.0  1330.29  173.98  13.08
380.5  1360.26  174.90  12.86
382.1  1412.49  170.90  12.10
383.6  1460.03  170.10  11.65
385.2  1529.00  173.25  11.33
386.7  1608.26  169.22  10.52
388.3  1679.42  178.90  10.65
389.8  1759.55  182.09  10.35
391.3  1843.67  185.20  10.05
392.9  1897.62  189.67  10.00
394.4  1955.58  197.84  10.12
395.9  2019.02  210.90  10.45
397.5  2131.80  218.03  10.23
399.0  2240.25  212.70  9.49
400.6  2303.62  202.35  8.78
402.1  2342.64  197.37  8.43
403.6  2375.92  194.20  8.17
405.1  2451.81  188.90  7.70
406.7  2542.40  193.01  7.59
408.2  2650.73  197.51  7.45
409.7  2746.24  198.99  7.25
411.3  2843.51  205.40  7.22
412.8  2936.43  213.70  7.28
414.3  3034.90  213.75  7.04
415.8  3152.50  224.17  7.11
417.4  3253.58  230.65  7.09
418.9  3339.60  234.87  7.03
420.4  3424.70  235.12  6.87
421.9  3487.22  234.34  6.72
423.5  3546.87  236.23  6.66
425.0  3613.98  230.37  6.37
426.5  3695.85  231.84  6.27
428.0  3801.23  229.20  6.03
429.5  3926.30  235.69  6.00
431.1  4071.24  234.46  5.76
432.6  4225.66  239.35  5.66
434.1  4373.60  246.40  5.63
435.6  4514.36  249.29  5.52
437.1  4642.95  255.78  5.51
438.6  4769.06  259.38  5.44
440.1  4906.69  266.65  5.43
441.6  5042.30  272.01  5.39
443.1  5179.95  277.43  5.36
444.7  5318.34  283.59  5.33
446.2  5433.01  290.49  5.35
447.7  5551.25  291.98  5.26
449.2  5676.48  295.56  5.21
450.7  5788.64  296.75  5.13
452.2  5916.62  297.05  5.02
453.7  6028.91  298.00  4.94
455.2  6201.73  298.87  4.82
456.7  6390.56  304.19  4.76
458.2  6607.30  311.06  4.71
459.7  6823.25  317.92  4.66
461.2  7031.76  326.23  4.64
462.7  7219.07  334.43  4.63
464.2  7396.86  342.52  4.63
465.7  7583.22  347.34  4.58
467.2  7742.35  357.73  4.62
468.7  7912.00  365.33  4.62
470.2  8015.91  376.69  4.70
471.7  8177.13  388.31  4.75
473.2  8446.52  398.01  4.71
474.6  8688.33  395.88  4.56
476.1  8747.12  388.67  4.44
477.6  8779.39  384.98  4.39
479.1  8829.54  383.15  4.34
480.6  8916.06  384.63  4.31
482.1  9046.91  381.88  4.22
483.6  9204.08  386.15  4.20
485.1  9394.00  388.62  4.14
486.6  9626.34  395.67  4.11
488.0  9867.00  400.29  4.06
489.5  10130.90  409.67  4.04
491.0  10387.73  416.30  4.01
492.5  10649.88  424.17  3.98
494.0  10928.34  432.46  3.96
495.4  11158.95  441.38  3.96
496.9  11406.10  448.67  3.93
498.4  11649.48  458.38  3.93
499.9  11878.23  462.87  3.90
501.4  12101.58  470.28  3.89
502.8  12308.24  477.69  3.88
504.3  12497.40  486.30  3.89
505.8  12681.02  490.38  3.87
507.2  12808.72  493.90  3.86
508.7  12896.48  496.40  3.85
510.2  12964.78  501.68  3.87
511.6  13008.39  502.04  3.86
513.1  13093.74  504.28  3.85
514.6  13195.49  500.65  3.79
516.0  13281.41  500.59  3.77
517.5  13429.99  503.72  3.75
519.0  13603.01  509.24  3.74
520.5  13772.72  509.77  3.70
521.9  13993.28  516.81  3.69
523.4  14243.35  522.36  3.67
524.8  14493.24  532.30  3.67
526.3  14778.04  541.07  3.66
527.8  15074.01  551.14  3.66
529.2  15339.71  561.42  3.66
530.7  15629.94  567.67  3.63
532.1  15903.48  580.22  3.65
533.6  16214.37  591.56  3.65
535.0  16534.98  602.62  3.64
536.5  16856.03  612.64  3.63
538.0  17178.24  627.13  3.65
539.4  17501.02  638.85  3.65
540.9  17879.62  656.51  3.67
542.3  18237.67  668.16  3.66
543.8  18504.51  677.21  3.66
545.2  18600.74  676.04  3.63
546.6  18637.00  679.45  3.65
548.1  18690.38  679.94  3.64
549.5  18745.60  680.34  3.63
551.0  18790.92  679.88  3.62
552.4  18868.34  681.62  3.61
553.9  18922.09  683.78  3.61
555.3  18999.63  682.99  3.59
556.8  19143.87  692.44  3.62
558.2  19276.31  691.59  3.59
559.6  19441.66  700.94  3.61
561.1  19660.88  710.40  3.61
562.5  19883.82  720.32  3.62
564.0  20177.05  733.33  3.63
565.4  20444.07  750.35  3.67
566.8  20774.24  770.35  3.71
568.3  21077.79  785.99  3.73
569.7  21403.31  807.34  3.77
571.1  21706.83  829.10  3.82
572.6  22010.94  856.17  3.89
574.0  22299.75  882.48  3.96
575.4  22570.31  913.22  4.05
576.9  22820.49  943.06  4.13
578.3  23040.88  980.74  4.26
579.7  23243.15  1014.07  4.36
581.1  23410.31  1054.83  4.51
582.6  23592.46  1099.90  4.66
584.0  23735.52  1148.33  4.84
585.4  23971.18  1204.10  5.02
586.8  24286.87  1265.16  5.21
588.3  24642.54  1333.02  5.41
589.7  24935.04  1404.78  5.63
591.1  25126.37  1471.42  5.86
592.5  25213.30  1537.75  6.10
594.0  25248.06  1601.36  6.34
595.4  25246.58  1677.15  6.64
596.8  25248.80  1748.89  6.93
598.2  25256.70  1829.37  7.24
599.6  25254.00  1914.41  7.58
601.0  25321.45  2008.24  7.93
602.4  25392.58  2108.31  8.30
603.9  25508.50  2214.07  8.68
605.3  25652.08  2324.04  9.06
606.7  25770.60  2437.80  9.46
608.1  26003.60  2564.78  9.86
609.5  26249.20  2701.47  10.29
610.9  26543.12  2843.99  10.71
612.3  26820.62  2994.64  11.17
613.7  27191.20  3161.10  11.63
615.1  27470.34  3323.43  12.10
616.5  27748.85  3488.20  12.57
617.9  28163.94  3685.22  13.08
619.3  28559.37  3882.76  13.60
620.7  29021.55  4101.02  14.13
622.1  29524.34  4297.56  14.56
623.5  30070.32  4488.97  14.93
624.9  30686.25  4707.98  15.34
626.3  31117.56  4916.41  15.80
627.7  30854.43  5045.46  16.35
629.1  30617.27  5191.99  16.96
630.5  30534.25  5367.16  17.58
631.9  30583.88  5560.86  18.18
633.3  30636.73  5746.10  18.76
634.7  30802.72  5947.58  19.31
636.1  30887.16  6101.98  19.76
637.5  30991.21  6249.25  20.16
638.9  31137.59  6389.67  20.52
640.2  31275.86  6505.99  20.80
641.6  31334.94  6581.64  21.00
643.0  31307.82  6636.50  21.20
644.4  31297.86  6676.46  21.33
645.8  31223.60  6682.46  21.40
647.2  31327.01  6728.69  21.48
648.5  31378.61  6774.12  21.59
649.9  31215.99  6779.01  21.72
651.3  31061.55  6808.93  21.92
652.7  30880.50  6829.75  22.12
654.1  30705.72  6727.28  21.91
655.5  30448.41  6581.12  21.61
656.8  30219.54  6436.14  21.30
658.2  30347.48  6358.10  20.95
659.6  30667.01  6303.15  20.55
660.9  30915.41  6217.37  20.11
662.3  31175.28  6121.65  19.64
663.7  31418.10  6001.45  19.10
665.0  31622.76  5877.16  18.59
666.4  31821.65  5762.38  18.11
667.8  32088.83  5670.09  17.67
669.1  32304.87  5584.55  17.29
670.5  32567.66  5532.11  16.99
671.9  32723.64  5482.16  16.75
673.2  32957.22  5478.90  16.62
674.6  33165.65  5501.92  16.59
676.0  33416.99  5562.94  16.65
677.3  33670.84  5666.28  16.83
678.7  33959.63  5826.75  17.16
680.0  34360.72  6078.24  17.69
681.4  34770.40  6426.68  18.48
682.8  35166.95  6901.97  19.63
684.1  35575.02  7516.47  21.13
685.5  35948.61  8280.62  23.03
686.8  36307.14  9195.07  25.33
688.2  36654.12  10246.90  27.96
689.5  36792.82  11367.43  30.90
690.9  36894.22  12556.14  34.03
692.2  37000.50  13784.03  37.25
693.6  37086.31  15035.54  40.54
694.9  37102.94  16230.45  43.74
696.2  37172.03  17410.43  46.84
697.6  37238.58  18533.51  49.77
698.9  37321.68  19610.36  52.54
700.3  37412.04  20645.78  55.18
701.6  37521.51  21614.14  57.60
703.0  37648.39  22520.36  59.82
704.3  37727.46  23311.82  61.79
705.6  37779.39  24050.27  63.66
707.0  37853.11  24741.88  65.36
708.3  37804.36  25306.75  66.94
709.6  37779.31  25829.01  68.37
711.0  37700.05  26264.80  69.67
712.3  37603.29  26661.51  70.90
713.6  37599.66  27083.28  72.03
714.9  37564.50  27454.47  73.09
716.3  37606.65  27844.50  74.04
717.6  37655.10  28236.81  74.99
718.9  37643.31  28513.87  75.75
720.2  37519.65  28678.28  76.44
721.6  37437.79  28855.50  77.08
722.9  37295.06  29002.34  77.76
724.2  37099.21  29070.81  78.36
725.5  36957.59  29174.55  78.94
726.8  36833.83  29239.90  79.38
728.1  36764.75  29330.39  79.78
729.5  36694.32  29403.47  80.13
730.8  36660.60  29477.86  80.41
732.1  36590.42  29528.16  80.70
733.4  36549.03  29588.66  80.96
734.7  36509.02  29626.44  81.15
736.0  36510.50  29713.86  81.38
737.3  36452.29  29760.09  81.64
738.6  36538.42  29920.86  81.89
739.9  36706.85  30160.04  82.16
741.2  36841.35  30336.67  82.34
742.5  37078.82  30621.16  82.58
743.8  37494.19  31050.73  82.81
745.1  38118.44  31655.14  83.04
746.4  38876.11  32320.85  83.14
747.7  39639.96  33006.48  83.27
749.0  40400.48  33680.42  83.37
750.3  40850.46  34066.21  83.39
751.6  40764.46  34072.83  83.58
752.9  40356.61  33818.24  83.80
754.2  39863.99  33510.77  84.06
755.4  39350.05  33172.03  84.30
756.7  39155.03  33100.05  84.54
758.0  39142.09  33172.54  84.75
759.3  39351.46  33440.03  84.98
760.6  39645.76  33796.33  85.25
761.9  39928.94  34128.31  85.47
763.1  40078.15  34311.50  85.61
764.4  40287.45  34537.90  85.73
765.7  40433.25  34701.88  85.83
767.0  40515.07  34836.97  85.99
768.2  40595.52  34956.88  86.11
769.5  40644.33  35054.44  86.25
770.8  40787.04  35226.07  86.37
772.0  40799.41  35282.79  86.48
773.3  40833.29  35374.54  86.63
774.6  40907.98  35486.14  86.75
775.8  40955.53  35564.18  86.84
777.1  40964.33  35599.00  86.90
778.4  40867.87  35551.35  86.99
779.6  40816.98  35559.30  87.12
780.9  40688.00  35516.67  87.29
782.1  40484.72  35412.42  87.47
783.4  40464.32  35420.32  87.53
784.6  40463.12  35449.10  87.61
785.9  40670.74  35731.29  87.86
787.1  41171.80  36208.52  87.94
788.4  41528.97  36531.67  87.97
789.6  41482.13  36454.60  87.88
790.9  41134.16  36102.19  87.77
792.1  40655.28  35735.43  87.90
793.4  40180.32  35372.64  88.03
794.6  39846.60  35118.55  88.13
795.8  39587.54  34915.46  88.20
797.1  39290.10  34692.99  88.30
798.3  39054.26  34553.82  88.48
799.5  38943.25  34468.24  88.51
800.8  38778.22  34363.87  88.62
802.0  38618.88  34250.30  88.69
803.2  38465.20  34112.44  88.68
804.5  38332.71  34013.73  88.73
805.7  38219.65  33915.73  88.74
806.9  38073.35  33807.78  88.80
808.1  37984.05  33741.71  88.83
809.4  37906.28  33706.82  88.92
810.6  37824.15  33648.01  88.96
811.8  37796.29  33644.46  89.02
813.0  37827.58  33663.93  88.99
814.2  37840.50  33704.53  89.07
815.4  37955.24  33793.66  89.04
816.6  38027.91  33830.49  88.96
817.9  38102.35  33857.95  88.86
819.1  38072.96  33782.95  88.73
820.3  37949.69  33662.37  88.70
821.5  37894.61  33564.68  88.57
822.7  37866.54  33517.78  88.52
823.9  37906.28  33501.96  88.38
825.1  37943.15  33469.38  88.21
826.3  38020.73  33451.73  87.98
827.5  38108.05  33445.35  87.76
828.7  38176.32  33435.44  87.58
829.9  38262.68  33418.12  87.34
831.0  38386.63  33461.56  87.17
832.2  38533.16  33502.34  86.94
833.4  38634.36  33541.42  86.82
834.6  38746.88  33594.53  86.70
835.8  38872.58  33647.51  86.56
837.0  39026.76  33748.34  86.47
838.1  39200.00  33883.89  86.44
839.3  39334.99  33966.63  86.35
840.5  39499.16  34081.92  86.29
841.7  39675.29  34227.41  86.27
842.9  39834.34  34383.94  86.32
844.0  40002.80  34521.32  86.30
845.2  40188.33  34645.17  86.21
846.4  40315.24  34753.81  86.21
847.5  40575.08  34952.78  86.14
848.7  40794.29  35130.91  86.12
849.9  41043.27  35277.58  85.95
851.0  41176.72  35333.84  85.81
852.2  41283.01  35398.90  85.75
853.3  41336.03  35384.62  85.60
854.5  41385.60  35378.14  85.48
855.6  41408.01  35396.10  85.48
856.8  41491.09  35446.00  85.43
857.9  41535.42  35450.96  85.35
859.1  41657.80  35563.20  85.37
860.2  41711.76  35577.25  85.29
861.4  41789.90  35622.98  85.24
862.5  41857.52  35656.16  85.18
863.7  41978.22  35737.86  85.13
864.8  42001.40  35755.95  85.13
865.9  42003.19  35724.64  85.05
867.1  42077.89  35730.26  84.91
868.2  42118.25  35737.01  84.85
869.3  42153.63  35732.40  84.77
870.5  42092.46  35662.37  84.72
871.6  42122.53  35664.56  84.67
872.7  42223.14  35718.87  84.60
873.9  42262.83  35698.83  84.47
875.0  42247.20  35644.81  84.37
876.1  42225.11  35608.66  84.33
877.2  42279.84  35580.44  84.15
878.3  42302.12  35517.27  83.96
879.4  42284.06  35501.89  83.96
880.5  42343.92  35477.04  83.78
881.7  42326.05  35390.01  83.61
882.8  42351.34  35370.32  83.52
883.9  42430.09  35337.97  83.29
885.0  42357.32  35223.83  83.16
886.1  42357.47  35147.27  82.98
887.2  42241.92  34963.63  82.77
888.3  42147.85  34805.47  82.58
889.4  42045.32  34644.88  82.40
890.5  41945.29  34525.17  82.31
891.6  41864.40  34432.87  82.25
892.7  41844.69  34345.82  82.08
893.8  41881.85  34311.02  81.92
894.9  41879.31  34264.89  81.82
896.0  41812.69  34158.66  81.69
897.0  41850.92  34101.78  81.48
898.1  41821.61  34047.97  81.41
899.2  41852.54  34005.38  81.25
900.3  41747.94  33868.17  81.13
901.4  41622.41  33742.59  81.07
902.4  41658.53  33705.31  80.91
903.5  41604.82  33566.23  80.68
904.6  41550.72  33521.28  80.68
905.7  41565.54  33460.96  80.50
906.7  41536.49  33369.22  80.34
907.8  41558.34  33322.86  80.18
908.9  41493.73  33198.22  80.01
909.9  41451.58  33112.77  79.88
911.0  41358.23  32979.35  79.74
912.1  41297.17  32852.18  79.55
913.1  41189.72  32702.80  79.40
914.2  41099.85  32520.84  79.13
915.2  41068.89  32435.87  78.98
916.3  41034.15  32354.30  78.85
917.3  40975.74  32208.45  78.60
918.4  40862.80  32013.94  78.34
919.4  40836.29  31879.97  78.07
920.5  40782.84  31749.26  77.85
921.5  40833.45  31634.19  77.47
922.6  40729.18  31446.54  77.21
923.6  40739.49  31358.13  76.97
924.7  40774.75  31241.29  76.62
925.7  40746.72  31077.70  76.27
926.7  40808.40  30951.86  75.85
927.8  40839.01  30816.74  75.46
928.8  40966.59  30731.47  75.02
929.9  41048.46  30666.70  74.71
930.9  41217.18  30614.12  74.28
931.9  41378.61  30593.80  73.94
932.9  41679.25  30651.64  73.54
934.0  41702.58  30496.75  73.13
935.0  41757.18  30341.90  72.66
936.0  41670.71  30137.63  72.32
937.0  41632.50  29923.86  71.88
938.1  41580.55  29723.14  71.48
939.1  41508.45  29555.04  71.20
940.1  41591.64  29407.13  70.70
941.1  41779.29  29390.67  70.35
942.1  41991.60  29358.71  69.92
943.1  42156.63  29252.19  69.39
944.1  42391.18  29263.67  69.03
945.2  42445.20  29073.66  68.50
946.2  42493.04  28917.96  68.05
947.2  42572.63  28762.94  67.56
948.2  42750.54  28627.27  66.96
949.2  42846.38  28476.77  66.46
950.2  42880.60  28268.60  65.92
951.2  42968.52  28093.52  65.38
952.2  43001.40  27909.75  64.90
953.2  43164.71  27795.57  64.39
954.2  43310.48  27652.58  63.85
955.2  43368.34  27437.42  63.27
956.2  43301.73  27255.36  62.94
957.2  43392.87  27159.13  62.59
958.2  43492.10  27021.53  62.13
959.2  43506.45  26950.80  61.95
960.1  43588.22  26837.70  61.57
961.1  43692.83  26824.96  61.39
962.1  43658.44  26742.50  61.25
963.1  43782.00  26716.14  61.02
964.1  43817.42  26662.13  60.85
965.1  43908.74  26724.42  60.86
966.1  44007.38  26702.14  60.68
967.0  44141.86  26693.49  60.47
968.0  44131.86  26673.83  60.44
969.0  44255.20  26685.80  60.30
970.0  44255.36  26718.76  60.37
971.0  44316.83  26715.41  60.28
971.9  44400.90  26703.52  60.14
972.9  44577.14  26702.03  59.90
973.9  44494.78  26667.77  59.93
974.9  44573.29  26658.69  59.81
975.8  44702.44  26689.01  59.70
976.8  44666.28  26672.78  59.72
977.8  44950.93  26717.82  59.44
978.8  44877.90  26757.63  59.62
979.7  45104.10  26726.32  59.25
981.4  47578.80  27472.12  57.74
985.3  47203.20  27404.08  58.06
989.3  47137.31  27511.54  58.36
993.3  47133.16  27686.18  58.74
997.2  47029.21  27828.48  59.17
1001.2  46955.35  28026.22  59.69
1005.2  46914.32  28315.87  60.36
1009.1  47038.13  28762.33  61.15
1013.1  47236.75  29263.83  61.95
1017.1  47375.30  29745.17  62.79
1021.0  47429.61  30141.36  63.55
1025.0  47461.87  30513.95  64.29
1029.0  47354.18  30814.96  65.07
1032.9  47271.77  31137.86  65.87
1036.9  47308.70  31549.60  66.69
1040.9  47476.08  32020.42  67.45
1044.8  47747.63  32527.59  68.12
1048.8  47970.59  32970.98  68.73
1052.7  48104.60  33339.79  69.31
1056.7  48183.46  33593.91  69.72
1060.7  48250.82  33785.10  70.02
1064.6  48272.17  33923.94  70.28
1068.6  48190.54  33938.33  70.43
1072.5  48116.11  33901.44  70.46
1076.5  48076.67  33840.04  70.39
1080.4  48048.88  33739.92  70.22
1084.4  48150.59  33647.86  69.88
1088.3  48279.53  33529.79  69.45
1092.3  48252.92  33284.94  68.98
1096.2  48221.83  32999.51  68.43
1100.2  48245.69  32751.25  67.88
1104.1  48124.97  32391.73  67.31
1108.1  48059.38  32061.14  66.71
1112.0  47955.87  31668.87  66.04
1116.0  47754.46  31160.94  65.25
1119.9  47569.76  30599.52  64.33
1123.9  47623.80  30063.21  63.13
1127.8  47592.96  29258.24  61.48
1131.8  47556.42  28224.48  59.35
1135.7  47568.82  27038.44  56.84
1139.6  47554.30  25734.57  54.12
1143.6  47510.71  24488.23  51.54
1147.5  47481.98  23416.25  49.32
1151.4  47337.52  22518.35  47.57
1155.4  47322.86  21945.24  46.37
1159.3  47329.81  21561.48  45.56
1163.2  47159.49  21223.14  45.00
1167.2  47113.86  21035.86  44.65
1171.1  47117.13  20896.93  44.35
1175.0  47022.16  20748.76  44.13
1179.0  46962.63  20618.90  43.90
1182.9  47045.30  20533.36  43.65
1186.8  47019.62  20422.10  43.43
1190.7  46784.64  20236.21  43.25
1194.7  46508.35  20054.18  43.12
1198.6  46264.68  19923.75  43.06
1202.5  46100.54  19860.50  43.08
1206.4  45962.62  19842.99  43.17
1210.3  45829.98  19857.84  43.33
1214.2  45707.13  19904.88  43.55
1218.2  45554.16  19955.89  43.81
1222.1  45384.95  20032.08  44.14
1226.0  45257.55  20131.31  44.48
1229.9  45156.00  20215.26  44.77
1233.8  45033.17  20281.57  45.04
1237.7  44950.68  20359.37  45.29
1241.6  44841.64  20417.12  45.53
1245.5  44683.61  20425.99  45.71
1249.4  44538.65  20432.89  45.88
1253.3  44401.40  20445.52  46.05
1257.2  44324.52  20463.66  46.17
1261.1  44209.48  20451.85  46.26
1265.0  44086.55  20411.30  46.30
1268.9  43910.05  20307.74  46.25
1272.8  43969.80  20294.85  46.16
1276.7  44155.69  20321.39  46.02
1280.6  44249.88  20260.91  45.79
1284.5  44188.89  20089.09  45.46
1288.4  44167.03  19923.76  45.11
1292.3  44060.50  19681.75  44.67
1296.2  43934.23  19393.34  44.14
1300.1  43787.98  19055.76  43.52
1303.9  43564.57  18646.36  42.80
1307.8  43339.22  18202.16  42.00
1311.7  43109.06  17721.57  41.11
1315.6  42877.90  17221.01  40.16
1319.5  42633.84  16679.93  39.12
1323.3  42417.44  16132.51  38.03
1327.2  42218.70  15585.86  36.92
1331.1  42002.86  15032.62  35.79
1335.0  41739.72  14469.93  34.67
1338.8  41543.11  13958.50  33.60
1342.7  41389.31  13498.39  32.61
1346.5  41042.00  12987.03  31.64
1350.4  40741.74  12523.45  30.74
1354.3  40332.24  12054.64  29.89
1358.1  39895.31  11589.69  29.05
1362.0  39644.33  11192.51  28.23
1365.8  39567.12  10827.62  27.37
1369.7  39683.68  10464.81  26.37
1373.5  39615.26  9951.60  25.12
1377.4  39354.79  9273.39  23.56
1381.2  39167.92  8513.27  21.74
1385.1  39160.09  7757.63  19.81
1389.0  39060.88  6984.26  17.88
1392.8  38834.72  6207.22  15.98
1396.6  38680.88  5529.30  14.29
1400.5  38476.57  4947.79  12.86
1404.3  38299.58  4482.64  11.70
1408.2  38263.03  4129.23  10.79
1412.0  38218.70  3851.91  10.08
1415.8  38249.29  3652.11  9.55
1419.6  38208.11  3493.69  9.14
1423.5  38172.20  3375.50  8.84
1427.3  38125.77  3284.89  8.62
1431.1  38099.78  3221.68  8.46
1434.9  38010.73  3170.85  8.34
1438.8  37949.80  3137.60  8.27
1442.6  37913.52  3116.57  8.22
1446.4  37795.09  3091.01  8.18
1450.2  37700.99  3076.26  8.16
1454.0  37583.52  3067.36  8.16
1457.8  37547.69  3076.89  8.19
1461.6  37527.24  3094.44  8.25
1465.4  37404.28  3114.94  8.33
1469.2  37216.73  3147.09  8.46
1473.0  37080.95  3200.70  8.63
1476.8  37019.78  3275.01  8.85
1480.7  36949.43  3366.08  9.11
1484.4  36826.56  3466.36  9.41
1488.2  36723.96  3585.68  9.76
1492.0  36584.11  3708.89  10.14
1495.8  36452.33  3828.83  10.50
1499.6  36350.05  3922.16  10.79
1503.4  36216.75  3980.36  10.99
1507.2  36087.28  4017.68  11.13
1510.9  35929.91  4057.30  11.29
1514.7  35749.31  4118.17  11.52
1518.5  35615.65  4196.03  11.78
1522.3  35466.30  4279.21  12.07
1526.0  35355.47  4370.72  12.36
1529.8  35294.61  4473.68  12.68
1533.6  35159.29  4563.31  12.98
1537.3  35020.99  4652.34  13.28
1541.1  34889.16  4744.32  13.60
1544.8  34754.40  4835.20  13.91
1548.6  34607.98  4919.39  14.21
1552.4  34514.76  5008.02  14.51
1556.1  34455.77  5095.54  14.79
1559.9  34373.05  5167.05  15.03
1563.6  34243.93  5243.86  15.31
1567.3  34122.03  5336.07  15.64
1571.1  33904.82  5414.39  15.97
1574.8  33749.79  5504.42  16.31
1578.6  33637.37  5587.92  16.61
1582.3  33496.17  5640.43  16.84
1586.0  33359.51  5681.72  17.03
1589.8  33217.24  5726.28  17.24
1593.5  33051.52  5768.80  17.45
1597.2  32917.71  5817.62  17.67
1600.9  32767.31  5860.11  17.88
1604.7  32613.52  5896.16  18.08
1608.4  32493.03  5942.82  18.29
1612.1  32320.35  5977.06  18.49
1615.8  32161.00  6014.20  18.70
1619.5  32072.28  6063.56  18.91
1623.2  31915.49  6098.57  19.11
1626.9  31725.78  6118.78  19.29
1630.6  31537.44  6143.57  19.48
1634.3  31397.73  6173.15  19.66
1638.0  31241.74  6178.59  19.78
1641.7  31050.65  6177.94  19.90
1645.4  30870.63  6173.33  20.00
1649.1  30683.95  6155.68  20.06
1652.8  30504.58  6137.86  20.12
1656.4  30322.32  6115.78  20.17
1660.1  30158.02  6095.54  20.21
1663.8  29966.42  6064.69  20.24
1667.5  29809.99  6042.60  20.27
1671.1  29676.54  6012.09  20.26
1674.8  29472.79  5963.15  20.23
1678.5  29413.48  5933.64  20.17
1682.1  29419.35  5904.00  20.07
1685.8  29417.21  5873.88  19.97
1689.5  29310.65  5814.55  19.84
1693.1  29167.59  5744.88  19.70
1696.8  29020.13  5677.04  19.56
1700.4  28874.60  5596.11  19.38
1704.0  28754.23  5512.76  19.17
1707.7  28493.62  5400.07  18.95
1711.3  28200.13  5277.04  18.71
1715.0  27991.44  5178.11  18.50
1718.6  27822.35  5081.92  18.27
1722.2  27677.55  4989.37  18.03
1725.9  27527.50  4901.61  17.81
1729.5  27386.37  4826.43  17.62
1733.1  27262.24  4778.81  17.53
1736.7  27144.69  4743.62  17.48
1740.3  26982.07  4683.03  17.36
1744.0  26899.89  4628.27  17.21
1747.5  26760.07  4554.06  17.02
1751.2  26551.35  4458.67  16.79
1754.8  26397.18  4374.09  16.57
1758.4  26262.14  4295.97  16.36
1762.0  26085.49  4219.77  16.18
1765.5  25956.49  4165.62  16.05
1769.1  25915.20  4134.40  15.95
1772.7  25841.75  4102.79  15.88
1776.3  25724.16  4060.00  15.78
1779.9  25608.69  4016.38  15.68
1783.5  25553.92  3987.01  15.60
1787.0  25434.82  3946.76  15.52
1790.6  25293.30  3915.49  15.48
1794.2  25193.03  3897.29  15.47
1797.8  25095.48  3878.08  15.45
1801.3  25012.46  3871.50  15.48
1804.9  24871.88  3850.88  15.48
1808.4  24792.34  3844.25  15.51
1812.0  24660.35  3832.68  15.54
1815.5  24519.60  3803.04  15.51
1819.1  24324.68  3772.28  15.51
1822.6  24164.48  3747.95  15.51
1826.2  24042.90  3720.89  15.48
1829.7  23859.90  3679.45  15.42
1833.2  23612.46  3629.28  15.37
1836.8  23400.20  3578.88  15.29
1840.3  23257.80  3532.47  15.19
1843.8  23131.92  3494.03  15.10
1847.3  23013.03  3452.81  15.00
1850.8  22865.47  3398.98  14.87
1854.3  22692.74  3308.03  14.58
1857.8  22594.00  3192.80  14.13
1861.3  22615.25  3054.19  13.51
1864.8  22605.64  2880.65  12.74
1868.3  22468.36  2661.34  11.84
1871.8  22341.12  2416.64  10.82
1875.3  22323.21  2189.01  9.81
1878.8  22320.32  1997.95  8.95
1882.3  22237.89  1817.26  8.17
1885.8  22045.10  1649.04  7.48
1889.3  21861.76  1504.16  6.88
1892.7  21710.01  1398.93  6.44
1896.2  21503.16  1347.37  6.27
1899.7  21232.37  1350.69  6.36
1901.7  20074.51  670.13  3.34
1904.5  20223.67  648.91  3.21
1907.2  20168.50  650.75  3.23
1910.0  20030.00  629.76  3.14
1912.7  20048.69  601.83  3.00
1915.5  19979.54  597.12  2.99
1918.2  19877.64  591.62  2.98
1921.0  19705.09  585.67  2.97
1923.7  19733.20  601.41  3.05
1926.5  19715.86  601.40  3.05
1929.2  19701.76  578.27  2.94
1932.0  19674.16  579.33  2.94
1934.7  19635.47  586.77  2.99
1937.4  19518.79  573.81  2.94
1940.2  19475.71  588.03  3.02
1942.9  19573.26  597.84  3.05
1945.6  19572.62  595.95  3.04
1948.3  19494.00  602.67  3.09
1951.1  19465.67  608.02  3.12
1953.8  19476.00  614.00  3.15
1956.5  19368.67  611.98  3.16
1959.2  19423.04  615.94  3.17
1961.9  19438.54  621.83  3.20
1964.6  19331.55  632.68  3.27
1967.3  19375.30  650.69  3.36
1970.0  19228.16  645.28  3.36
1972.8  19159.08  655.01  3.42
1975.5  19219.42  677.04  3.52
1978.2  19120.16  685.23  3.58
1980.9  19002.89  695.72  3.66
1983.5  18950.70  690.24  3.64
1986.2  18944.10  705.19  3.72
1988.9  18909.18  728.47  3.85
1991.6  18787.78  719.34  3.83
1994.3  18678.85  725.94  3.89
1997.0  18669.58  748.71  4.01
1999.7  18631.37  767.69  4.12
2002.3  18617.79  778.62  4.18
2005.0  18540.12  776.70  4.19
2007.7  18469.93  787.38  4.26
2010.4  18400.48  799.40  4.34
2013.0  18316.11  807.03  4.41
2015.7  18226.45  807.98  4.43
2018.4  18129.14  815.07  4.50
2021.0  18062.50  837.72  4.64
2023.7  17946.51  837.64  4.67
2026.4  17902.73  838.43  4.68
2029.0  17806.29  844.44  4.74
2031.7  17677.40  860.96  4.87
2034.3  17722.47  863.78  4.87
2037.0  17610.64  877.34  4.98
2039.6  17527.07  882.45  5.03
2042.3  17481.88  873.39  5.00
2044.9  17393.81  885.45  5.09
2047.5  17348.93  889.19  5.13
2050.2  17253.60  884.80  5.13
2052.8  17214.40  903.47  5.25
2055.4  17090.17  917.08  5.37
2058.1  16973.60  911.87  5.37
2060.7  16918.14  909.31  5.37
2063.3  16842.61  906.60  5.38
2065.9  16794.67  922.18  5.49
2068.6  16710.92  928.70  5.56
2071.2  16664.67  931.86  5.59
2073.8  16591.32  940.24  5.67
2076.4  16536.88  939.30  5.68
2079.0  16525.61  949.78  5.75
2081.6  16519.89  957.47  5.80
2084.2  16487.00  969.71  5.88
2086.8  16353.42  972.95  5.95
2089.4  16268.28  956.90  5.88
2092.1  16209.50  969.95  5.98
2094.7  16113.80  985.93  6.12
2097.2  16087.67  988.83  6.15
2099.8  16089.36  1003.92  6.24
2102.4  15953.94  991.38  6.21
2105.0  15826.05  981.35  6.20
2107.6  15774.07  1010.21  6.40
2110.2  15742.83  1016.37  6.46
2112.8  15734.02  1008.85  6.41
2115.3  15735.22  1032.47  6.56
2117.9  15738.64  1039.76  6.61
2120.5  15682.70  1029.00  6.56
2123.1  15604.88  1036.43  6.64
2125.6  15567.02  1055.18  6.78
2128.2  15487.92  1051.65  6.79
2130.8  15394.28  1050.08  6.82
2133.3  15347.20  1065.78  6.94
2135.9  15264.31  1071.75  7.02
2138.4  15119.35  1066.69  7.06
2141.0  15032.51  1078.37  7.17
2143.6  14998.41  1079.83  7.20
2146.1  14847.40  1058.78  7.13
2148.7  14686.27  1067.97  7.27
2151.2  14704.80  1074.58  7.31
2153.8  14713.72  1074.32  7.30
2156.3  14589.47  1066.15  7.31
2158.8  14533.35  1071.08  7.37
2161.4  14517.59  1084.99  7.47
2163.9  14426.20  1091.87  7.57
2166.4  14354.62  1098.89  7.66
2169.0  14310.27  1089.04  7.61
2171.5  14227.48  1077.21  7.57
2174.0  14143.15  1082.90  7.66
2176.5  14124.76  1087.36  7.70
2179.1  14082.55  1092.23  7.76
2181.6  13967.33  1079.79  7.73
2184.1  13937.00  1074.92  7.71
2186.6  13993.83  1090.05  7.79
2189.1  13896.09  1084.98  7.81
2191.6  13840.87  1107.40  8.00
2194.1  13877.92  1112.76  8.02
2196.6  13844.81  1098.26  7.93
2199.2  13897.52  1108.13  7.97
2201.7  13871.80  1101.96  7.94
2204.1  13802.39  1084.84  7.86
2206.6  13786.08  1106.57  8.03
2209.1  13743.34  1127.93  8.21
2211.6  13738.26  1111.54  8.09
2214.1  13693.60  1084.74  7.92
2216.6  13643.61  1095.19  8.03
2219.1  13655.01  1090.12  7.98
2221.6  13597.41  1089.98  8.02
2224.0  13563.60  1096.01  8.08
2226.5  13534.39  1071.75  7.92
2229.0  13551.73  1072.21  7.91
2231.5  13416.49  1044.31  7.78
2233.9  13376.81  1040.33  7.78
2236.4  13409.64  1048.63  7.82
2238.9  13341.63  1020.42  7.65
2241.3  13300.17  1000.17  7.52
2243.8  13261.31  993.69  7.49
2246.2  13153.53  991.13  7.54
2248.7  13089.53  979.59  7.48
2251.2  13067.33  968.52  7.41
2253.6  13017.60  954.88  7.34
2256.1  12979.20  917.76  7.07
2258.5  12980.99  911.75  7.02
2260.9  12912.45  902.51  6.99
2263.4  12850.74  867.46  6.75
2265.8  12840.17  853.96  6.65
2268.3  12768.77  846.63  6.63
2270.7  12812.36  836.76  6.53
2273.1  12778.22  828.36  6.48
2275.6  12710.40  824.32  6.49
2278.0  12729.12  816.07  6.41
2280.4  12680.26  808.15  6.37
2282.8  12544.20  783.37  6.24
2285.3  12570.98  776.37  6.18
2287.7  12679.54  779.70  6.15
2290.1  12579.51  772.22  6.14
2292.5  12520.09  747.37  5.97
2294.9  12538.64  740.28  5.90
2297.3  12458.25  706.63  5.67
2299.7  12334.59  675.17  5.47
2302.1  12311.40  678.29  5.51
2304.5  12214.72  642.88  5.26
2306.9  12089.28  646.80  5.35
2309.3  11994.02  646.53  5.39
2311.7  11939.85  621.46  5.20
2314.1  11791.37  620.95  5.27
2316.5  11721.50  627.77  5.36
2318.9  11765.88  637.23  5.42
2321.3  11730.50  645.75  5.50
2323.7  11744.39  656.24  5.59
2326.1  11719.24  643.46  5.49
2328.4  11761.55  634.66  5.40
2330.8  11807.83  621.68  5.26
2333.2  11712.54  598.53  5.11
2335.6  11662.03  607.53  5.21
2337.9  11681.16  610.70  5.23
2340.3  11629.38  596.16  5.13
2342.7  11548.22  572.69  4.96
2345.0  11508.47  564.81  4.91
2347.4  11492.00  565.25  4.92
2349.7  11315.65  538.23  4.76
2352.1  11286.89  538.90  4.77
2354.4  11296.02  545.89  4.83
2356.8  11214.70  525.19  4.68
2359.2  11154.00  530.11  4.75
2361.5  11109.05  523.60  4.71
2363.8  11141.66  510.90  4.59
2366.2  11165.73  526.66  4.72
2368.5  11089.40  520.65  4.70
2370.9  11067.03  505.49  4.57
2373.2  11030.32  511.12  4.63
2375.5  10914.30  493.23  4.52
2377.9  10876.18  495.34  4.55
2380.2  10876.88  508.57  4.68
2382.5  10821.23  485.54  4.49
2384.8  10769.44  467.09  4.34
2387.2  10736.28  465.71  4.34
2389.5  10704.02  464.30  4.34
2391.8  10661.73  475.34  4.46
2394.1  10613.91  478.24  4.51
2396.4  10610.47  462.87  4.36
2398.7  10654.34  448.20  4.21
2401.0  10513.07  438.46  4.17
2403.3  10428.12  434.92  4.17
2405.6  10456.51  423.19  4.05
2407.9  10375.71  425.85  4.10
2410.2  10317.44  434.49  4.21
2412.5  10224.31  418.39  4.09
2414.8  10187.84  403.96  3.97
2417.1  10204.62  387.13  3.79
2419.4  10195.97  371.65  3.65
2421.7  10103.31  396.00  3.92
2424.0  10048.90  394.49  3.93
2426.2  10074.05  367.37  3.65
2428.5  10032.46  376.78  3.76
2430.8  10006.20  374.23  3.74
2433.1  9945.94  387.22  3.89
2435.4  9886.37  387.92  3.92
2437.6  9830.42  374.87  3.81
2439.9  9708.34  355.62  3.66
2442.2  9709.99  337.51  3.48
2444.4  9752.18  333.11  3.42
2446.7  9688.56  356.24  3.68
2448.9  9658.24  365.17  3.78
2451.2  9631.36  319.85  3.32
2453.4  9564.32  325.44  3.40
2455.7  9566.46  346.66  3.62
2457.9  9468.86  341.88  3.61
2460.2  9395.46  318.53  3.39
2462.4  9422.40  332.80  3.53
2464.7  9348.95  307.01  3.28
2466.9  9251.22  293.18  3.17
2469.2  9249.34  324.08  3.50
2471.4  9151.61  308.56  3.37
2473.6  9078.42  303.51  3.34
2475.9  9042.40  273.19  3.02
2478.1  8956.32  270.99  3.03
2480.3  8952.70  306.31  3.42
2482.5  8971.16  312.15  3.48
2484.8  8832.66  286.41  3.24
2487.0  8762.09  269.11  3.07
2489.2  8850.00  251.28  2.84
2491.4  8753.22  274.10  3.13
2493.6  8669.20  250.83  2.89
2495.8  8662.66  240.19  2.77
2498.0  8674.13  278.33  3.21
2500.2  8694.60  241.52  2.78
2502.4  8942.16  257.52  2.88
2504.6  9089.52  300.48  3.31
2506.8  9176.65  301.99  3.29
