/*** Spectra Vista SIG Data ***/
name= RS.sig
comm= Resampled spectral data SIG file reprocesed for matching/overlap;Averaged Ref/Tar of files: RS1,RS2,RS3
data=
346.0  468.20  138.55  29.59
356.0  683.10  157.81  23.10
366.0  906.09  167.85  18.52
376.0  1249.89  174.53  13.96
386.0  1571.27  171.10  10.89
396.0  2026.07  211.35  10.43
406.0  2502.77  191.21  7.64
416.0  3165.14  224.98  7.11
426.0  3668.56  231.35  6.31
436.0  4548.65  251.02  5.52
446.0  5417.72  289.57  5.34
456.0  6302.44  301.71  4.79
466.0  7615.04  349.42  4.59
476.0  8743.20  389.15  4.45
486.0  9533.40  392.85  4.12
496.0  11257.81  444.30  3.95
506.0  12699.26  490.88  3.87
516.0  13281.41  500.59  3.77
526.0  14721.08  539.32  3.66
536.0  16749.01  609.30  3.64
546.0  18621.46  677.99  3.64
556.0  19066.94  687.40  3.61
566.0  20585.57  758.92  3.69
576.0  22670.38  925.16  4.08
586.0  24106.47  1230.27  5.10
596.0  25247.53  1707.90  6.76
606.0  25711.34  2380.92  9.26
616.0  27649.38  3429.35  12.40
626.0  31025.14  4871.75  15.70
636.0  30881.13  6090.95  19.72
646.0  31238.37  6689.06  21.41
656.0  30360.38  6525.36  21.49
666.0  31764.82  5795.18  18.24
676.0  33416.99  5562.94  16.65
686.0  36086.51  8632.33  23.92
696.0  37161.40  17228.88  46.36
706.0  37800.45  24247.88  64.15
716.0  37597.62  27760.92  73.84
726.0  36909.99  29199.68  79.11
736.0  36510.50  29713.86  81.38
746.0  38642.98  32116.01  83.11
756.0  39260.04  33138.81  84.41
766.0  40452.13  34733.05  85.86
776.0  40956.88  35569.54  86.85
786.0  40712.49  35771.05  87.86
796.0  39541.78  34881.23  88.21
806.0  38183.08  33888.74  88.75
816.0  37991.58  33812.08  89.00
826.0  38001.34  33456.14  88.04
836.0  38898.28  33664.32  86.54
846.0  40272.93  34717.59  86.21
856.0  41435.70  35412.73  85.46
866.0  42009.41  35725.11  85.04
876.0  42227.12  35611.95  84.33
886.0  42357.46  35154.23  82.99
896.0  41812.69  34158.66  81.69
906.0  41556.83  33433.44  80.45
916.0  41043.62  32376.55  78.88
926.0  40765.22  31039.95  76.14
936.0  41670.71  30137.63  72.32
946.0  42483.47  28949.10  68.14
956.0  43315.05  27291.77  63.01
966.0  43997.52  26704.37  60.70
976.0  44695.21  26685.76  59.71
986.0  47191.67  27422.89  58.11
996.0  47061.19  27784.70  59.04
1006.0  46939.72  28407.45  60.52
1016.0  47337.20  29612.80  62.56
1026.0  47434.95  30589.20  64.49
1036.0  47300.39  31456.96  66.50
1046.0  47814.52  32660.60  68.31
1056.0  48169.66  33549.44  69.65
1066.0  48243.60  33928.98  70.33
1076.0  48081.60  33847.72  70.40
1086.0  48203.49  33599.42  69.70
1096.0  48223.42  33014.14  68.46
1106.0  48093.81  32234.70  67.02
1116.0  47754.46  31160.94  65.25
1126.0  47607.19  29629.77  62.24
1136.0  47567.70  26938.13  56.63
1146.0  47493.03  23828.55  50.17
1156.0  47323.93  21886.20  46.25
1166.0  47127.55  21092.04  44.76
1176.0  47007.28  20716.30  44.07
1186.0  47024.89  20444.92  43.48
1196.0  46427.12  20010.70  43.10
1206.0  45976.77  19844.79  43.16
1216.0  45638.29  19927.84  43.66
1226.0  45257.55  20131.31  44.48
1236.0  44986.64  20325.46  45.18
1246.0  44665.03  20426.87  45.73
1256.0  44348.18  20458.08  46.13
1266.0  44041.29  20384.75  46.29
1276.0  44122.33  20316.63  46.05
1286.0  44180.48  20025.50  45.33
1296.0  43940.70  19408.13  44.17
1306.0  43443.23  18407.18  42.37
1316.0  42852.87  17165.51  40.06
1326.0  42279.85  15754.06  37.26
1336.0  41687.98  14335.34  34.39
1346.0  41087.70  13054.31  31.77
1356.0  40136.77  11846.64  29.52
1366.0  39573.10  10809.02  27.31
1376.0  39448.29  9516.85  24.12
1386.0  39137.19  7579.16  19.37
1396.0  38705.17  5636.34  14.56
1406.0  38283.65  4328.59  11.31
1416.0  38247.12  3643.77  9.53
1426.0  38141.65  3315.89  8.69
1436.0  37993.55  3161.47  8.32
1446.0  37807.56  3093.70  8.18
1456.0  37564.66  3072.38  8.18
1466.0  37374.67  3120.02  8.35
1476.0  37032.66  3259.37  8.80
1486.0  36783.36  3516.60  9.56
1496.0  36446.95  3833.74  10.52
1506.0  36128.16  4005.89  11.09
1516.0  35703.58  4144.81  11.61
1526.0  35355.47  4370.72  12.36
1536.0  35069.58  4621.06  13.18
1546.0  34708.16  4861.79  14.01
1556.0  34457.36  5093.18  14.78
1566.0  34164.86  5303.67  15.52
1576.0  33714.29  5530.79  16.40
1586.0  33359.51  5681.72  17.03
1596.0  32961.11  5801.79  17.60
1606.0  32571.18  5912.55  18.15
1616.0  32156.21  6016.87  18.71
1626.0  31771.93  6113.86  19.24
1636.0  31326.06  6175.65  19.71
1646.0  30840.36  6170.47  20.01
1656.0  30342.57  6118.23  20.16
1666.0  29873.41  6051.56  20.26
1676.0  29453.55  5953.58  20.21
1686.0  29411.45  5870.67  19.96
1696.0  29052.01  5691.71  19.59
1706.0  28613.36  5451.85  19.05
1716.0  27944.47  5151.39  18.43
1726.0  27523.58  4899.52  17.80
1736.0  27167.55  4750.46  17.49
1746.0  26819.99  4585.86  17.10
1756.0  26352.17  4348.05  16.50
1766.0  25950.76  4161.28  16.04
1776.0  25733.96  4063.57  15.79
1786.0  25468.85  3958.26  15.54
1796.0  25144.26  3887.69  15.46
1806.0  24846.88  3848.80  15.49
1816.0  24492.53  3798.77  15.51
1826.0  24049.65  3722.39  15.48
1836.0  23447.37  3590.08  15.31
1846.0  23057.19  3468.12  15.04
1856.0  22644.78  3252.06  14.36
1866.0  22558.57  2805.46  12.44
1876.0  22322.63  2150.80  9.64
1886.0  22034.63  1640.76  7.45
1896.0  21514.98  1350.32  6.28
1906.0  20193.02  649.93  3.22
1916.0  19960.67  596.10  2.99
1926.0  19718.96  601.40  3.05
1936.0  19579.29  580.53  2.97
1946.0  19560.97  596.95  3.05
1956.0  19388.55  612.35  3.16
1966.0  19354.23  642.02  3.32
1976.0  19201.04  678.56  3.53
1986.0  18944.59  704.08  3.72
1996.0  18673.01  740.28  3.96
2006.0  18514.12  780.66  4.22
2016.0  18215.64  808.77  4.44
2026.0  17909.22  838.31  4.68
2036.0  17652.06  872.32  4.94
2046.0  17374.82  887.03  5.11
2056.0  17064.26  915.92  5.37
2066.0  16791.57  922.42  5.49
2076.0  16545.25  939.44  5.68
2086.0  16394.52  971.95  5.93
2096.0  16100.21  987.44  6.13
2106.0  15806.06  992.45  6.28
2116.0  15736.14  1034.43  6.57
2126.0  15554.85  1054.64  6.78
2136.0  15258.51  1071.55  7.02
2146.0  14853.45  1059.62  7.13
2156.0  14604.38  1067.13  7.31
2166.0  14366.07  1097.77  7.64
2176.0  14128.44  1086.47  7.69
2186.0  13980.19  1086.42  7.77
2196.0  13852.76  1101.74  7.95
2206.0  13790.00  1101.35  7.99
2216.0  13655.61  1092.68  8.00
2226.0  13540.23  1076.60  7.95
2236.0  13404.39  1047.30  7.81
2246.0  13162.51  991.34  7.53
2256.0  12980.74  919.25  7.08
2266.0  12834.46  853.37  6.65
2276.0  12713.52  822.95  6.47
2286.0  12602.64  777.34  6.17
2296.0  12501.79  724.86  5.80
2306.0  12136.32  645.33  5.32
2316.0  11736.06  626.35  5.34
2326.0  11720.29  643.99  5.49
2336.0  11665.36  608.08  5.21
2346.0  11501.61  564.99  4.91
2356.0  11241.81  532.09  4.73
2366.0  11163.72  525.35  4.71
2376.0  10906.36  493.67  4.53
2386.0  10752.86  466.40  4.34
2396.0  10611.07  465.54  4.39
2406.0  10442.46  423.65  4.06
2416.0  10196.59  395.18  3.88
2426.0  10071.76  369.83  3.67
2436.0  9871.11  384.36  3.89
2446.0  9707.92  349.20  3.60
2456.0  9553.15  346.01  3.62
2466.0  9291.20  298.84  3.22
2476.0  9038.48  273.09  3.02
2486.0  8794.17  276.97  3.15
2496.0  8663.70  243.66  2.81
2506.0  9144.96  301.44  3.30
