/*** Spectra Vista SIG Data ***/
name= RT.sig
comm= Resampled spectral data SIG file reprocesed for matching/overlap;Averaged Ref/Tar of files: RD2T1,RD2T2,RD2T3
data=
346.0  375.83  144.92  38.56
356.0  581.00  170.31  29.31
366.0  757.36  183.88  24.28
376.0  1024.42  192.76  18.82
386.0  1270.30  183.83  14.47
396.0  1628.71  220.61  13.55
406.0  1975.96  200.25  10.13
416.0  2454.68  236.55  9.64
426.0  2820.90  246.16  8.73
436.0  3490.19  276.12  7.91
446.0  4137.46  315.66  7.63
456.0  4792.51  343.39  7.17
466.0  5826.63  402.43  6.91
476.0  6773.21  467.31  6.90
486.0  7444.53  479.64  6.44
496.0  8782.32  558.82  6.36
506.0  9900.39  644.20  6.51
516.0  10415.15  697.55  6.70
526.0  11632.45  786.95  6.77
536.0  13244.62  914.13  6.90
546.0  14608.62  1043.88  7.15
556.0  14828.38  1094.22  7.38
566.0  15922.73  1244.85  7.82
576.0  17574.57  1510.98  8.60
586.0  18792.94  1874.49  9.97
596.0  19726.81  2339.19  11.86
606.0  20012.82  2872.93  14.36
616.0  21343.31  3700.97  17.34
626.0  23846.77  5047.37  21.17
636.0  23580.55  5895.06  25.00
646.0  23704.38  5792.83  24.44
656.0  23093.86  5722.91  24.78
666.0  24352.90  5311.04  21.81
676.0  25725.94  5296.62  20.59
686.0  27783.44  8247.15  29.68
696.0  28543.17  16118.18  56.47
706.0  28931.75  22607.92  78.14
716.0  28652.96  25942.15  90.54
726.0  27991.53  27333.29  97.65
736.0  27644.05  27869.24  100.81
746.0  29288.75  30084.43  102.72
756.0  29849.40  31198.39  104.52
766.0  30869.28  32672.75  105.84
776.0  31375.44  33588.09  107.05
786.0  31271.27  33867.77  108.30
796.0  30505.24  33404.90  109.51
806.0  29566.53  32585.33  110.21
816.0  29457.99  32479.14  110.26
826.0  29461.27  32226.36  109.39
836.0  30106.07  32284.87  107.24
846.0  31054.66  33075.45  106.51
856.0  31881.36  33759.17  105.89
866.0  32290.72  33952.69  105.15
876.0  32498.96  33850.28  104.16
886.0  32711.33  33646.54  102.86
896.0  32359.87  32852.39  101.52
906.0  32282.24  32310.88  100.09
916.0  31923.18  31438.86  98.48
926.0  31824.34  30339.83  95.34
936.0  32632.98  29628.29  90.79
946.0  33418.03  28593.91  85.56
956.0  34182.35  27164.40  79.47
966.0  34782.59  26630.50  76.56
976.0  35508.62  27141.35  76.44
986.0  36756.52  28498.71  77.53
996.0  37052.75  29048.46  78.40
1006.0  37100.24  29653.70  79.93
1016.0  37443.62  30819.78  82.31
1026.0  37569.44  31800.21  84.64
1036.0  37477.81  32649.76  87.12
1046.0  37883.40  33787.49  89.19
1056.0  38193.90  34642.52  90.70
1066.0  38286.13  35021.80  91.47
1076.0  38209.84  34956.12  91.48
1086.0  38369.82  34766.30  90.61
1096.0  38423.56  34238.17  89.11
1106.0  38391.06  33485.06  87.22
1116.0  38194.85  32510.36  85.12
1126.0  38122.64  31112.14  81.61
1136.0  38153.75  28562.35  74.86
1146.0  38157.38  25513.70  66.86
1156.0  38035.07  23524.25  61.85
1166.0  37933.73  22691.00  59.82
1176.0  37918.40  22298.32  58.81
1186.0  37994.54  22047.50  58.03
1196.0  37576.72  21590.91  57.46
1206.0  37276.14  21405.83  57.43
1216.0  37077.28  21474.88  57.92
1226.0  36831.24  21671.19  58.84
1236.0  36701.19  21870.08  59.59
1246.0  36501.09  21963.05  60.17
1256.0  36304.73  21998.34  60.59
1266.0  36102.85  21902.68  60.67
1276.0  36216.93  21846.28  60.32
1286.0  36303.78  21594.24  59.48
1296.0  36125.88  20962.79  58.03
1306.0  35757.36  19938.48  55.76
1316.0  35297.26  18676.25  52.91
1326.0  34847.21  17229.24  49.44
1336.0  34372.56  15788.12  45.93
1346.0  33929.83  14507.95  42.76
1356.0  33270.66  13341.47  40.10
1366.0  32823.62  12273.67  37.39
1376.0  32741.17  10931.18  33.39
1386.0  32489.11  8892.67  27.37
1396.0  32146.34  6800.98  21.16
1406.0  31805.02  5345.37  16.81
1416.0  31757.24  4562.75  14.37
1426.0  31679.97  4173.80  13.17
1436.0  31583.26  3992.28  12.64
1446.0  31445.73  3902.14  12.41
1456.0  31262.74  3869.73  12.38
1466.0  31132.47  3926.88  12.61
1476.0  30859.61  4064.38  13.17
1486.0  30676.68  4316.32  14.07
1496.0  30402.91  4640.76  15.26
1506.0  30183.66  4852.14  16.08
1516.0  29878.73  5037.62  16.86
1526.0  29598.21  5259.63  17.77
1536.0  29375.53  5477.88  18.65
1546.0  29078.10  5758.27  19.80
1556.0  28892.17  6032.26  20.88
1566.0  28684.04  6248.62  21.78
1576.0  28320.72  6479.31  22.88
1586.0  28045.18  6655.29  23.73
1596.0  27755.30  6779.65  24.43
1606.0  27443.73  6897.61  25.13
1616.0  27114.48  7002.92  25.83
1626.0  26801.49  7107.12  26.52
1636.0  26456.86  7167.29  27.09
1646.0  26078.49  7181.24  27.54
1656.0  25695.90  7147.17  27.81
1666.0  25330.04  7085.04  27.97
1676.0  24990.89  6988.97  27.97
1686.0  24967.40  6893.41  27.61
1696.0  24668.68  6699.75  27.16
1706.0  24309.69  6433.18  26.46
1716.0  23757.80  6092.52  25.64
1726.0  23419.96  5805.66  24.79
1736.0  23130.16  5627.81  24.33
1746.0  22852.16  5456.63  23.88
1756.0  22460.39  5189.57  23.11
1766.0  22124.46  4974.09  22.48
1776.0  21956.06  4862.36  22.15
1786.0  21733.20  4743.96  21.83
1796.0  21473.75  4667.54  21.74
1806.0  21231.30  4634.25  21.83
1816.0  20949.63  4580.66  21.87
1826.0  20602.05  4501.53  21.85
1836.0  20138.98  4348.69  21.59
1846.0  19808.26  4157.69  20.99
1856.0  19485.55  3843.23  19.72
1866.0  19395.03  3407.24  17.57
1876.0  19157.56  2731.94  14.26
1886.0  18873.91  2138.02  11.33
1896.0  18473.76  1798.22  9.73
1906.0  17200.08  1181.89  6.87
1916.0  17040.65  1147.17  6.73
1926.0  16858.94  1128.57  6.69
1936.0  16760.42  1122.52  6.70
1946.0  16730.28  1152.46  6.89
1956.0  16558.50  1183.13  7.15
1966.0  16548.27  1229.49  7.43
1976.0  16417.75  1252.33  7.63
1986.0  16191.20  1289.83  7.97
1996.0  15962.21  1342.45  8.41
2006.0  15834.08  1389.47  8.78
2016.0  15607.50  1423.72  9.12
2026.0  15335.53  1450.29  9.46
2036.0  15090.26  1483.72  9.83
2046.0  14894.66  1504.49  10.10
2056.0  14646.12  1532.00  10.46
2066.0  14377.40  1543.21  10.73
2076.0  14186.35  1569.80  11.07
2086.0  14058.50  1606.85  11.43
2096.0  13821.24  1625.02  11.76
2106.0  13562.52  1632.61  12.04
2116.0  13507.64  1678.53  12.43
2126.0  13352.04  1705.27  12.77
2136.0  13106.24  1715.73  13.09
2146.0  12783.75  1703.30  13.32
2156.0  12549.70  1719.74  13.70
2166.0  12333.40  1709.12  13.86
2176.0  12134.32  1702.99  14.03
2186.0  12031.68  1712.35  14.23
2196.0  11911.77  1713.07  14.38
2206.0  11851.86  1703.58  14.37
2216.0  11752.40  1671.27  14.22
2226.0  11647.12  1636.33  14.05
2236.0  11526.09  1587.07  13.77
2246.0  11309.71  1516.86  13.41
2256.0  11144.76  1442.87  12.95
2266.0  11028.62  1358.84  12.32
2276.0  10938.54  1288.08  11.78
2286.0  10850.04  1231.30  11.35
2296.0  10769.46  1173.11  10.89
2306.0  10446.31  1053.66  10.09
2316.0  10106.36  1008.28  9.98
2326.0  10119.65  1018.75  10.07
2336.0  10041.83  972.79  9.69
2346.0  9938.31  918.41  9.24
2356.0  9690.01  872.63  9.01
2366.0  9620.43  837.46  8.70
2376.0  9422.73  790.74  8.39
2386.0  9302.48  756.39  8.13
2396.0  9132.01  724.15  7.93
2406.0  8977.81  703.54  7.84
2416.0  8854.48  661.52  7.47
2426.0  8705.64  606.11  6.96
2436.0  8528.81  591.04  6.93
2446.0  8355.80  546.62  6.54
2456.0  8271.17  544.12  6.58
2466.0  8003.59  516.78  6.46
2476.0  7807.12  480.79  6.16
2486.0  7617.80  455.34  5.98
2496.0  7503.08  453.99  6.05
2506.0  7932.36  455.17  5.74
