/*** Spectra Vista SIG Data ***/
name= PARA500WB.sig
comm= Averaged Ref/Tar of files: PARA_650(WB)1,PARA_650(WB)2,PARA_650(WB)3
data=
346.4  630.63  487.31  77.27
347.9  683.98  523.96  76.61
349.5  730.08  568.88  77.92
351.1  795.60  610.48  76.73
352.6  847.55  671.50  79.23
354.2  906.48  711.22  78.46
355.7  986.68  774.53  78.50
357.3  1040.25  827.58  79.56
358.8  1065.98  857.44  80.44
360.4  1143.19  919.24  80.41
361.9  1187.53  962.33  81.04
363.5  1239.58  1007.59  81.28
365.1  1293.38  1056.43  81.68
366.6  1353.38  1116.31  82.48
368.2  1426.94  1188.56  83.29
369.7  1498.64  1247.23  83.22
371.3  1600.16  1334.56  83.40
372.8  1673.28  1416.53  84.66
374.4  1748.85  1486.30  84.99
375.9  1797.33  1541.36  85.76
377.4  1870.19  1590.47  85.04
379.0  1934.96  1645.35  85.03
380.5  1988.07  1690.57  85.04
382.1  2033.04  1748.38  86.00
383.6  2120.58  1806.84  85.21
385.2  2208.25  1895.67  85.84
386.7  2301.38  1986.40  86.31
388.3  2426.73  2088.85  86.08
389.8  2519.91  2179.53  86.49
391.3  2626.26  2276.28  86.67
392.9  2697.06  2357.56  87.41
394.4  2771.65  2415.54  87.15
395.9  2873.10  2504.67  87.18
397.5  3029.74  2624.91  86.64
399.0  3151.80  2745.98  87.12
400.6  3234.69  2813.96  86.99
402.1  3274.02  2859.50  87.34
403.6  3322.94  2907.37  87.49
405.1  3409.22  2975.07  87.27
406.7  3528.00  3087.47  87.51
408.2  3644.19  3203.89  87.92
409.7  3754.24  3301.01  87.93
411.3  3867.08  3408.08  88.13
412.8  3976.86  3500.49  88.02
414.3  4099.56  3604.35  87.92
415.8  4220.00  3720.00  88.15
417.4  4361.72  3834.64  87.92
418.9  4457.86  3933.31  88.23
420.4  4558.78  4007.94  87.92
421.9  4636.72  4077.70  87.94
423.5  4707.36  4145.41  88.06
425.0  4796.17  4220.06  87.99
426.5  4895.55  4305.73  87.95
428.0  5034.78  4423.14  87.85
429.5  5188.33  4557.64  87.84
431.1  5363.82  4712.37  87.85
432.6  5552.18  4882.51  87.94
434.1  5732.65  5037.73  87.88
435.6  5890.14  5181.93  87.98
437.1  6052.80  5317.65  87.85
438.6  6197.61  5439.78  87.77
440.1  6347.97  5567.52  87.71
441.6  6494.11  5697.11  87.73
443.1  6656.18  5830.65  87.60
444.7  6793.83  5957.45  87.69
446.2  6914.93  6062.40  87.67
447.7  7037.77  6164.70  87.59
449.2  7173.36  6271.20  87.42
450.7  7292.48  6357.87  87.18
452.2  7429.67  6470.09  87.08
453.7  7576.65  6600.08  87.11
455.2  7765.17  6758.18  87.03
456.7  7990.40  6961.97  87.13
458.2  8239.46  7182.23  87.17
459.7  8510.25  7411.83  87.09
461.2  8764.99  7630.69  87.06
462.7  8985.80  7821.70  87.05
464.2  9215.88  8023.33  87.06
465.7  9451.34  8217.19  86.94
467.2  9653.88  8394.93  86.96
468.7  9860.00  8580.00  87.02
470.2  10000.52  8718.34  87.18
471.7  10219.63  8890.42  86.99
473.2  10551.31  9142.32  86.65
474.6  10836.41  9337.21  86.17
476.1  10924.36  9405.03  86.09
477.6  10960.04  9461.25  86.32
479.1  11023.85  9521.14  86.37
480.6  11109.78  9588.17  86.30
482.1  11255.33  9713.14  86.30
483.6  11435.12  9863.03  86.25
485.1  11655.27  10051.58  86.24
486.6  11911.43  10274.36  86.26
488.0  12195.63  10506.17  86.15
489.5  12483.95  10756.98  86.17
491.0  12777.45  11011.23  86.18
492.5  13078.26  11265.48  86.14
494.0  13380.84  11528.39  86.16
495.4  13642.20  11755.15  86.17
496.9  13904.42  11984.48  86.19
498.4  14171.30  12208.57  86.15
499.9  14439.02  12434.13  86.11
501.4  14680.69  12648.93  86.16
502.8  14919.13  12855.95  86.17
504.3  15134.40  13041.00  86.17
505.8  15347.35  13230.49  86.21
507.2  15489.44  13356.81  86.23
508.7  15598.86  13457.84  86.27
510.2  15690.64  13543.96  86.32
511.6  15752.95  13599.02  86.33
513.1  15872.56  13705.85  86.35
514.6  16004.87  13835.90  86.45
516.0  16136.97  13940.34  86.39
517.5  16322.55  14120.84  86.51
519.0  16545.71  14326.49  86.59
520.5  16764.08  14539.69  86.73
521.9  17039.29  14798.45  86.85
523.4  17355.20  15088.70  86.94
524.8  17660.07  15381.37  87.10
526.3  18013.36  15703.55  87.18
527.8  18358.47  16027.72  87.30
529.2  18674.36  16328.71  87.44
530.7  19031.03  16658.83  87.54
532.1  19344.85  16956.39  87.65
533.6  19707.77  17288.44  87.72
535.0  20079.68  17634.54  87.82
536.5  20419.92  17964.60  87.98
538.0  20792.00  18312.91  88.08
539.4  21127.02  18638.10  88.22
540.9  21551.03  19024.86  88.28
542.3  21923.06  19340.64  88.22
543.8  22174.34  19567.06  88.24
545.2  22231.45  19638.27  88.34
546.6  22222.15  19651.51  88.43
548.1  22214.03  19682.77  88.61
549.5  22226.58  19690.58  88.59
551.0  22212.49  19698.66  88.68
552.4  22245.44  19744.36  88.76
553.9  22258.65  19769.36  88.82
555.3  22290.26  19818.05  88.91
556.8  22401.11  19931.63  88.98
558.2  22512.94  20055.94  89.09
559.6  22672.30  20208.98  89.14
561.1  22889.75  20423.00  89.22
562.5  23127.28  20659.96  89.33
564.0  23454.83  20973.25  89.42
565.4  23755.76  21262.82  89.51
566.8  24132.47  21625.70  89.61
568.3  24488.54  21968.35  89.71
569.7  24876.90  22337.52  89.79
571.1  25245.29  22690.89  89.88
572.6  25607.34  23052.06  90.02
574.0  25974.30  23401.40  90.09
575.4  26319.94  23734.69  90.18
576.9  26649.32  24053.45  90.26
578.3  26932.26  24343.37  90.39
579.7  27212.85  24617.09  90.46
581.1  27427.97  24842.93  90.58
582.6  27669.82  25085.07  90.66
584.0  27882.24  25295.13  90.72
585.4  28177.77  25571.47  90.75
586.8  28576.31  25930.35  90.74
588.3  29013.66  26328.90  90.75
589.7  29383.38  26665.08  90.75
591.1  29621.38  26881.61  90.75
592.5  29726.99  26997.66  90.82
594.0  29770.20  27056.62  90.88
595.4  29770.08  27071.24  90.93
596.8  29766.17  27085.63  90.99
598.2  29744.67  27076.93  91.03
599.6  29714.85  27055.59  91.05
601.0  29771.81  27109.03  91.06
602.4  29816.58  27151.65  91.06
603.9  29909.17  27250.23  91.11
605.3  30024.63  27360.36  91.13
606.7  30119.40  27454.20  91.15
608.1  30316.50  27650.94  91.21
609.5  30539.01  27865.23  91.24
610.9  30814.99  28135.89  91.31
612.3  31075.20  28379.36  91.32
613.7  31428.96  28707.65  91.34
615.1  31662.90  28936.98  91.39
616.5  31902.59  29173.02  91.44
617.9  32288.77  29554.37  91.53
619.3  32666.57  29895.27  91.52
620.7  33128.50  30325.40  91.54
622.1  33560.89  30721.34  91.54
623.5  34032.77  31202.95  91.69
624.9  34565.21  31799.78  92.00
626.3  34922.45  32197.60  92.20
627.7  34564.35  31873.61  92.22
629.1  34256.15  31590.83  92.22
630.5  34133.81  31472.59  92.20
631.9  34173.45  31514.43  92.22
633.3  34221.59  31500.80  92.05
634.7  34406.41  31634.73  91.94
636.1  34488.04  31717.46  91.97
637.5  34613.12  31839.89  91.99
638.9  34796.83  32044.83  92.09
640.2  34954.01  32265.77  92.31
641.6  35055.54  32377.02  92.36
643.0  35067.41  32390.56  92.37
644.4  35115.49  32391.58  92.24
645.8  35070.53  32341.18  92.22
647.2  35256.78  32521.67  92.24
648.5  35391.08  32652.45  92.26
649.9  35282.13  32486.87  92.08
651.3  35212.95  32343.35  91.85
652.7  35080.35  32212.45  91.82
654.1  34845.90  32035.76  91.94
655.5  34548.82  31809.72  92.07
656.8  34274.04  31600.32  92.20
658.2  34439.22  31780.25  92.28
659.6  34825.18  32139.97  92.29
660.9  35139.54  32447.30  92.34
662.3  35443.63  32750.18  92.40
663.7  35746.20  33026.70  92.39
665.0  36012.67  33266.55  92.37
666.4  36257.27  33513.57  92.43
667.8  36589.28  33825.30  92.45
669.1  36867.26  34077.20  92.43
670.5  37195.97  34383.45  92.44
671.9  37380.96  34573.24  92.49
673.2  37662.77  34837.26  92.50
674.6  37922.97  35066.52  92.47
676.0  38225.19  35356.85  92.50
677.3  38533.34  35633.16  92.47
678.7  38864.13  35950.75  92.50
680.0  39305.58  36370.56  92.53
681.4  39779.73  36798.68  92.51
682.8  40233.38  37212.94  92.49
684.1  40676.22  37625.64  92.50
685.5  41092.36  38013.16  92.51
686.8  41490.36  38381.74  92.51
688.2  41836.80  38690.32  92.48
689.5  41943.86  38787.02  92.47
690.9  42017.36  38857.88  92.48
692.2  42092.85  38905.35  92.43
693.6  42157.83  38953.28  92.40
694.9  42109.57  38901.05  92.38
696.2  42121.91  38918.59  92.40
697.6  42142.24  38936.70  92.39
698.9  42160.80  38957.60  92.40
700.3  42212.70  38980.22  92.34
701.6  42275.21  39036.71  92.34
703.0  42340.09  39092.06  92.33
704.3  42340.84  39090.30  92.32
705.6  42307.56  39057.21  92.32
707.0  42304.76  39059.94  92.33
708.3  42205.58  38944.26  92.27
709.6  42077.70  38844.11  92.32
711.0  41902.11  38699.03  92.36
712.3  41730.30  38530.44  92.33
713.6  41662.74  38467.94  92.33
714.9  41546.10  38356.47  92.32
716.3  41517.29  38335.60  92.34
717.6  41513.92  38334.36  92.34
718.9  41427.26  38248.82  92.33
720.2  41191.85  38048.41  92.37
721.6  41046.72  37907.22  92.35
722.9  40841.06  37735.35  92.40
724.2  40588.46  37477.19  92.33
725.5  40381.61  37315.69  92.41
726.8  40196.01  37150.13  92.42
728.1  40102.16  37071.54  92.44
729.5  40009.55  36977.27  92.42
730.8  39945.60  36930.70  92.45
732.1  39850.55  36853.29  92.48
733.4  39793.17  36810.86  92.51
734.7  39729.39  36758.46  92.52
736.0  39732.49  36767.23  92.54
737.3  39673.91  36722.09  92.56
738.6  39788.18  36835.07  92.58
739.9  39986.32  37022.77  92.59
741.2  40139.19  37179.87  92.63
742.5  40421.44  37454.87  92.66
743.8  40915.88  37920.58  92.68
745.1  41627.68  38589.56  92.70
746.4  42484.72  39382.53  92.70
747.7  43357.88  40212.12  92.74
749.0  44203.37  41008.76  92.77
750.3  44693.01  41445.52  92.73
751.6  44609.70  41358.19  92.71
752.9  44168.69  40929.38  92.67
754.2  43669.08  40445.55  92.62
755.4  43127.05  39954.37  92.64
756.7  42940.36  39811.57  92.71
758.0  42963.66  39840.98  92.73
759.3  43246.58  40113.17  92.75
760.6  43631.28  40476.33  92.77
761.9  43987.93  40809.12  92.77
763.1  44205.00  41002.24  92.75
764.4  44447.50  41235.39  92.77
765.7  44632.25  41418.00  92.80
767.0  44781.90  41547.65  92.78
768.2  44909.76  41676.32  92.80
769.5  44994.81  41782.36  92.86
770.8  45181.96  41946.72  92.84
772.0  45202.30  41979.89  92.87
773.3  45281.34  42063.45  92.89
774.6  45399.45  42166.42  92.88
775.8  45492.85  42263.65  92.90
777.1  45515.93  42291.40  92.92
778.4  45431.52  42225.37  92.94
779.6  45395.43  42199.03  92.96
780.9  45316.00  42116.00  92.94
782.1  45111.08  41935.89  92.96
783.4  45111.04  41941.12  92.97
784.6  45106.92  41961.12  93.03
785.9  45393.88  42261.47  93.10
787.1  45996.98  42808.44  93.07
788.4  46441.69  43225.67  93.08
789.6  46399.50  43149.63  93.00
790.9  45932.90  42728.78  93.02
792.1  45403.52  42215.25  92.98
793.4  44896.14  41763.44  93.02
794.6  44551.89  41454.28  93.05
795.8  44231.81  41171.16  93.08
797.1  43906.28  40865.43  93.07
798.3  43659.83  40660.54  93.13
799.5  43520.02  40526.12  93.12
800.8  43336.38  40372.90  93.16
802.0  43170.52  40229.51  93.19
803.2  42985.20  40041.17  93.15
804.5  42855.21  39926.14  93.17
805.7  42692.40  39770.86  93.16
806.9  42512.38  39616.38  93.19
808.1  42409.86  39504.62  93.15
809.4  42316.73  39426.34  93.17
810.6  42192.15  39316.55  93.18
811.8  42172.17  39288.45  93.16
813.0  42163.23  39278.94  93.16
814.2  42178.96  39297.51  93.17
815.4  42279.13  39387.12  93.16
816.6  42301.14  39433.37  93.22
817.9  42349.13  39451.51  93.16
819.1  42261.23  39371.25  93.16
820.3  42104.76  39209.51  93.12
821.5  41970.20  39094.96  93.15
822.7  41937.17  39037.48  93.09
823.9  41911.59  39047.60  93.17
825.1  41906.00  39043.94  93.17
826.3  41927.28  39067.01  93.18
827.5  41996.16  39114.56  93.14
828.7  42070.56  39167.36  93.10
829.9  42094.44  39209.19  93.15
831.0  42223.46  39297.98  93.07
832.2  42314.37  39380.62  93.07
833.4  42402.89  39450.10  93.04
834.6  42482.81  39531.25  93.05
835.8  42572.25  39590.78  93.00
837.0  42673.89  39694.21  93.02
838.1  42851.66  39840.73  92.97
839.3  42953.40  39929.13  92.96
840.5  43102.99  40036.53  92.89
841.7  43251.71  40163.13  92.86
842.9  43400.31  40289.18  92.83
844.0  43549.44  40398.02  92.76
845.2  43705.60  40526.56  92.73
846.4  43839.60  40646.55  92.72
847.5  44086.39  40846.17  92.65
848.7  44310.84  41018.99  92.57
849.9  44519.86  41199.82  92.54
851.0  44600.35  41258.24  92.51
852.2  44693.32  41334.06  92.48
853.3  44699.49  41316.22  92.43
854.5  44750.58  41323.73  92.34
855.6  44778.78  41337.66  92.32
856.8  44851.95  41367.52  92.23
857.9  44871.50  41388.24  92.24
859.1  45012.00  41486.27  92.17
860.2  45071.56  41494.05  92.06
861.4  45164.68  41539.45  91.97
862.5  45221.87  41594.91  91.98
863.7  45380.27  41678.88  91.84
864.8  45412.85  41675.55  91.77
865.9  45403.93  41591.59  91.60
867.1  45474.25  41614.54  91.51
868.2  45524.97  41654.74  91.50
869.3  45589.41  41671.53  91.41
870.5  45539.97  41608.48  91.37
871.6  45562.59  41655.63  91.43
872.7  45700.60  41756.54  91.37
873.9  45747.35  41811.69  91.40
875.0  45745.04  41819.77  91.42
876.1  45783.66  41860.52  91.43
877.2  45820.13  41896.04  91.44
878.3  45822.65  41911.83  91.47
879.4  45871.99  41989.12  91.54
880.5  45962.28  42007.20  91.39
881.7  45908.85  41988.05  91.46
882.8  46012.72  42026.84  91.34
883.9  46073.21  42068.11  91.31
885.0  46039.40  42017.20  91.26
886.1  46025.94  41996.58  91.25
887.2  45905.76  41867.75  91.20
888.3  45807.80  41734.19  91.11
889.4  45707.30  41616.44  91.05
890.5  45592.32  41546.07  91.13
891.6  45545.58  41467.41  91.05
892.7  45554.16  41434.53  90.96
893.8  45579.45  41463.94  90.97
894.9  45613.48  41447.16  90.87
896.0  45529.58  41415.00  90.96
897.0  45627.02  41413.92  90.77
898.1  45583.05  41400.58  90.82
899.2  45607.22  41416.67  90.81
900.3  45541.50  41334.78  90.76
901.4  45412.27  41223.32  90.78
902.4  45437.06  41222.91  90.73
903.5  45388.81  41167.48  90.70
904.6  45388.82  41200.65  90.77
905.7  45374.76  41191.34  90.78
906.7  45323.04  41160.72  90.82
907.8  45383.91  41206.45  90.80
908.9  45302.99  41124.46  90.78
909.9  45307.76  41096.87  90.71
911.0  45202.77  41034.58  90.78
912.1  45152.49  40982.45  90.76
913.1  45072.56  40899.91  90.74
914.2  44921.94  40752.39  90.72
915.2  44915.04  40739.22  90.70
916.3  44853.15  40742.70  90.84
917.3  44875.31  40729.91  90.76
918.4  44790.35  40605.04  90.66
919.4  44699.60  40552.78  90.72
920.5  44708.24  40545.25  90.69
921.5  44702.98  40565.75  90.75
922.6  44636.74  40497.46  90.73
923.6  44687.86  40540.83  90.72
924.7  44720.00  40549.00  90.67
925.7  44710.62  40540.38  90.67
926.7  44757.60  40534.15  90.56
927.8  44773.30  40609.97  90.70
928.8  44894.28  40746.52  90.76
929.9  45005.21  40844.97  90.76
930.9  45213.30  40985.02  90.65
931.9  45414.99  41163.34  90.64
932.9  45762.26  41477.62  90.64
934.0  45803.71  41515.10  90.64
935.0  45810.36  41576.52  90.76
936.0  45840.15  41500.93  90.53
937.0  45795.75  41462.01  90.54
938.1  45737.41  41465.08  90.66
939.1  45690.54  41400.29  90.61
940.1  45792.08  41470.24  90.56
941.1  45974.44  41701.38  90.71
942.1  46240.75  41899.95  90.61
943.1  46430.63  42067.85  90.60
944.1  46685.58  42309.75  90.63
945.2  46780.86  42371.42  90.57
946.2  46886.15  42449.07  90.54
947.2  46973.00  42496.84  90.47
948.2  47156.13  42673.49  90.49
949.2  47321.63  42768.11  90.38
950.2  47306.35  42833.77  90.55
951.2  47423.88  42954.24  90.58
952.2  47533.98  43069.20  90.61
953.2  47748.84  43218.93  90.51
954.2  47923.43  43360.73  90.48
955.2  47900.28  43388.82  90.58
956.2  47872.99  43395.66  90.65
957.2  47942.90  43493.98  90.72
958.2  48058.20  43519.28  90.56
959.2  48218.40  43634.10  90.49
960.1  48234.68  43718.71  90.64
961.1  48358.04  43785.67  90.54
962.1  48485.63  43824.69  90.39
963.1  48452.08  43873.21  90.55
964.1  48561.50  43979.29  90.56
965.1  48761.92  44113.36  90.47
966.1  48787.80  44171.32  90.54
967.0  48997.06  44269.98  90.35
968.0  48996.14  44270.44  90.35
969.0  49091.60  44376.47  90.40
970.0  49111.31  44409.87  90.43
971.0  49170.03  44491.51  90.49
971.9  49289.72  44581.97  90.45
972.9  49420.88  44675.49  90.40
973.9  49398.70  44742.97  90.58
974.9  49421.14  44851.59  90.75
975.8  49584.23  44815.97  90.38
976.8  49645.86  44906.26  90.45
977.8  49761.42  45014.65  90.46
978.8  49883.25  45138.95  90.49
979.7  50017.88  45189.66  90.35
980.7  50024.37  45318.85  90.59
981.7  50216.51  45477.47  90.56
982.6  50458.51  45881.56  90.93
983.6  51132.02  46272.51  90.50
984.6  51562.39  46591.31  90.36
985.5  52257.60  47421.48  90.75
986.5  53039.20  48112.06  90.71
987.5  54168.11  48943.77  90.36
988.4  55057.20  49935.60  90.70
989.4  56551.39  51100.15  90.36
990.4  58242.03  52597.86  90.31
991.3  59136.61  53910.32  91.16
992.3  60254.81  55037.95  91.34
993.2  62830.60  56921.53  90.60
994.2  63759.15  58108.54  91.14
995.2  64907.22  59405.03  91.52
996.1  65710.99  60005.85  91.32
997.1  66771.58  60257.28  90.24
998.0  65779.20  59726.60  90.80
999.0  67569.18  61185.64  90.55
1000.0  65627.63  60252.41  91.81
1000.9  66106.32  60597.46  91.67
1001.9  66896.78  60815.25  90.91
1002.8  66066.52  59655.00  90.30
1003.8  66771.11  59788.52  89.54
1004.8  64803.12  60087.40  92.72
961.5  59942.22  49339.54  82.31
965.5  58683.65  48590.29  82.80
969.5  56453.82  47324.11  83.83
973.4  54183.76  45859.35  84.64
977.4  52184.81  44762.18  85.78
981.4  51194.56  44332.91  86.60
985.3  50809.00  44226.78  87.05
989.3  50771.60  44402.58  87.46
993.3  50798.35  44580.86  87.76
997.2  50697.53  44571.45  87.92
1001.2  50579.49  44504.81  87.99
1005.2  50486.54  44416.18  87.98
1009.1  50560.95  44452.21  87.92
1013.1  50727.98  44600.80  87.92
1017.1  50849.68  44731.45  87.97
1021.0  50849.88  44743.86  87.99
1025.0  50810.76  44712.37  88.00
1029.0  50630.25  44540.18  87.97
1032.9  50480.43  44359.81  87.88
1036.9  50465.40  44295.08  87.77
1040.9  50583.57  44356.66  87.69
1044.8  50808.96  44513.19  87.61
1048.8  51011.12  44646.81  87.52
1052.7  51152.74  44741.36  87.47
1056.7  51218.34  44783.45  87.44
1060.7  51244.53  44799.53  87.42
1064.6  51271.85  44805.67  87.39
1068.6  51212.40  44725.71  87.33
1072.5  51129.80  44642.67  87.31
1076.5  51067.99  44605.86  87.35
1080.4  51059.78  44593.85  87.34
1084.4  51173.05  44662.03  87.28
1088.3  51270.71  44741.44  87.27
1092.3  51246.52  44671.20  87.17
1096.2  51213.59  44564.31  87.02
1100.2  51236.75  44474.13  86.80
1104.1  51113.59  44148.33  86.37
1108.1  51042.38  43731.75  85.68
1112.0  50923.58  43241.99  84.92
1116.0  50680.63  42788.96  84.43
1119.9  50469.69  42434.72  84.08
1123.9  50510.21  42142.07  83.43
1127.8  50453.76  41532.16  82.32
1131.8  50410.11  40909.24  81.15
1135.7  50431.75  40674.73  80.65
1139.6  50412.72  40868.24  81.07
1143.6  50359.32  41292.26  82.00
1147.5  50310.97  41707.86  82.90
1151.4  50143.03  41876.16  83.51
1155.4  50134.85  42006.03  83.79
1159.3  50144.08  41997.01  83.75
1163.2  49963.74  41755.38  83.57
1167.2  49935.24  41610.34  83.33
1171.1  49953.49  41514.54  83.11
1175.0  49867.99  41382.71  82.98
1179.0  49819.26  41348.87  83.00
1182.9  49917.95  41539.10  83.21
1186.8  49905.20  41739.85  83.64
1190.7  49670.39  41802.17  84.16
1194.7  49404.69  41805.13  84.62
1198.6  49164.89  41771.73  84.96
1202.5  49001.90  41712.81  85.12
1206.4  48884.92  41614.70  85.13
1210.3  48777.95  41522.90  85.13
1214.2  48660.86  41410.68  85.10
1218.2  48519.81  41271.17  85.06
1222.1  48391.40  41173.30  85.08
1226.0  48286.77  41130.42  85.18
1229.9  48199.26  41132.24  85.34
1233.8  48101.55  41128.82  85.50
1237.7  48042.85  41109.64  85.57
1241.6  47954.67  41021.25  85.54
1245.5  47801.28  40845.94  85.45
1249.4  47677.41  40655.13  85.27
1253.3  47548.54  40441.74  85.05
1257.2  47470.59  40275.93  84.84
1261.1  47367.50  40094.03  84.64
1265.0  47247.17  39926.45  84.51
1268.9  47057.34  39748.08  84.47
1272.8  47119.05  39775.55  84.42
1276.7  47328.98  39895.23  84.29
1280.6  47427.97  39907.72  84.14
1284.5  47354.06  39759.15  83.96
1288.4  47330.17  39643.50  83.76
1292.3  47195.50  39442.33  83.57
1296.2  47036.33  39209.16  83.36
1300.1  46870.36  38961.33  83.13
1303.9  46619.88  38661.80  82.93
1307.8  46362.46  38383.23  82.79
1311.7  46091.30  38119.66  82.70
1315.6  45825.96  37891.69  82.69
1319.5  45558.05  37687.21  82.72
1323.3  45306.73  37497.00  82.76
1327.2  45081.41  37295.97  82.73
1331.1  44830.46  37047.56  82.64
1335.0  44517.46  36723.75  82.49
1338.8  44295.06  36443.30  82.27
1342.7  44103.48  36148.26  81.96
1346.5  43706.23  35608.95  81.47
1350.4  43365.23  35067.81  80.87
1354.3  42904.30  34446.70  80.29
1358.1  42414.00  33868.57  79.85
1362.0  42133.73  33511.30  79.54
1365.8  42044.97  33307.96  79.22
1369.7  42179.02  33241.80  78.81
1373.5  42126.10  32997.98  78.33
1377.4  41845.31  32607.72  77.92
1381.2  41626.26  32289.24  77.57
1385.1  41605.67  32093.10  77.14
1389.0  41500.27  31824.27  76.68
1392.8  41279.89  31522.80  76.36
1396.6  41128.69  31348.33  76.22
1400.5  40917.36  31140.96  76.11
1404.3  40743.76  30953.94  75.97
1408.2  40714.23  30878.56  75.84
1412.0  40658.86  30771.79  75.68
1415.8  40688.80  30696.82  75.44
1419.6  40646.12  30523.25  75.10
1423.5  40609.62  30327.69  74.68
1427.3  40564.30  30124.35  74.26
1431.1  40541.03  29974.68  73.94
1434.9  40441.04  29821.57  73.74
1438.8  40382.86  29729.23  73.62
1442.6  40343.84  29673.19  73.55
1446.4  40196.90  29547.80  73.51
1450.2  40086.31  29440.44  73.44
1454.0  39952.44  29310.16  73.36
1457.8  39925.25  29239.12  73.23
1461.6  39899.87  29162.30  73.09
1465.4  39763.25  28997.60  72.93
1469.2  39564.53  28782.54  72.75
1473.0  39396.65  28613.54  72.63
1476.8  39327.39  28509.17  72.49
1480.7  39262.61  28392.54  72.31
1484.4  39136.20  28196.76  72.05
1488.2  39038.16  27955.08  71.61
1492.0  38896.77  27637.44  71.05
1495.8  38756.90  27246.16  70.30
1499.6  38633.61  26754.70  69.25
1503.4  38493.31  26169.38  67.98
1507.2  38360.25  25568.87  66.65
1510.9  38195.59  24970.91  65.38
1514.7  38022.72  24394.76  64.16
1518.5  37900.97  23904.76  63.07
1522.3  37750.02  23528.12  62.33
1526.0  37629.32  23286.18  61.88
1529.8  37568.00  23110.33  61.52
1533.6  37446.52  22869.91  61.07
1537.3  37311.54  22623.02  60.63
1541.1  37176.81  22393.56  60.24
1544.8  37039.20  22162.40  59.83
1548.6  36901.40  21906.05  59.36
1552.4  36801.24  21625.70  58.76
1556.1  36709.12  21292.35  58.00
1559.9  36606.65  20937.12  57.19
1563.6  36470.47  20611.50  56.52
1567.3  36356.68  20398.65  56.11
1571.1  36135.22  20225.57  55.97
1574.8  35991.19  20137.53  55.95
1578.6  35886.86  20056.02  55.89
1582.3  35744.22  19893.20  55.65
1586.0  35609.35  19695.12  55.31
1589.8  35457.22  19461.33  54.89
1593.5  35302.19  19187.17  54.35
1597.2  35165.05  18939.09  53.86
1600.9  35016.52  18707.35  53.42
1604.7  34867.53  18489.48  53.03
1608.4  34730.61  18296.02  52.68
1612.1  34557.54  18068.16  52.28
1615.8  34413.02  17826.86  51.80
1619.5  34337.68  17612.28  51.29
1623.2  34189.48  17332.52  50.70
1626.9  34000.04  16935.43  49.81
1630.6  33831.60  16394.69  48.46
1634.3  33692.41  15809.69  46.92
1638.0  33541.83  15373.34  45.83
1641.7  33356.57  15223.88  45.64
1645.4  33161.69  15270.53  46.05
1649.1  32972.09  15319.35  46.46
1652.8  32801.54  15273.60  46.56
1656.4  32621.94  15056.10  46.15
1660.1  32453.88  14706.60  45.32
1663.8  32259.22  14305.26  44.34
1667.5  32099.10  13998.64  43.61
1671.1  31958.82  13885.18  43.45
1674.8  31759.13  13950.56  43.93
1678.5  31706.08  14165.34  44.68
1682.1  31722.89  14353.45  45.25
1685.8  31732.56  14467.81  45.59
1689.5  31624.03  14570.26  46.07
1693.1  31483.08  14762.73  46.89
1696.8  31338.13  15018.71  47.92
1700.4  31185.14  15244.01  48.88
1704.0  31062.51  15393.32  49.56
1707.7  30798.04  15365.98  49.89
1711.3  30495.47  15230.64  49.94
1715.0  30277.23  15072.87  49.78
1718.6  30100.95  14873.57  49.41
1722.2  29962.74  14659.10  48.92
1725.9  29812.62  14466.74  48.53
1729.5  29667.76  14353.48  48.38
1733.1  29538.89  14319.63  48.48
1736.7  29414.14  14315.63  48.67
1740.3  29250.14  14276.60  48.81
1744.0  29154.53  14270.58  48.95
1747.5  29000.44  14240.79  49.11
1751.2  28775.51  14172.34  49.25
1754.8  28605.69  14124.77  49.38
1758.4  28462.58  14066.40  49.42
1762.0  28276.20  13969.28  49.40
1765.5  28135.25  13904.77  49.42
1769.1  28084.80  13916.80  49.55
1772.7  28003.71  13948.99  49.81
1776.3  27877.58  13982.64  50.16
1779.9  27744.38  14021.35  50.54
1783.5  27681.76  14095.49  50.92
1787.0  27561.47  14116.02  51.22
1790.6  27400.03  14110.15  51.50
1794.2  27283.58  14128.74  51.78
1797.8  27171.37  14145.50  52.06
1801.3  27078.88  14161.18  52.30
1804.9  26927.25  14134.75  52.49
1808.4  26839.46  14141.25  52.69
1812.0  26683.02  14109.86  52.88
1815.5  26515.64  14061.24  53.03
1819.1  26311.24  13994.95  53.19
1822.6  26144.27  13951.89  53.37
1826.2  26001.22  13921.53  53.54
1829.7  25808.19  13882.25  53.79
1833.2  25554.19  13806.09  54.03
1836.8  25320.75  13734.78  54.24
1840.3  25192.67  13724.73  54.48
1843.8  25093.88  13755.44  54.82
1847.3  25048.77  13819.80  55.17
1850.8  25006.46  13853.95  55.40
1854.3  24882.94  13834.96  55.60
1857.8  24809.20  13819.87  55.70
1861.3  24778.14  13821.09  55.78
1864.8  24674.08  13756.17  55.75
1868.3  24414.78  13627.43  55.82
1871.8  24184.32  13557.76  56.06
1875.3  24125.47  13585.24  56.31
1878.8  24137.81  13635.04  56.49
1882.3  24078.64  13611.14  56.53
1885.8  23884.19  13513.49  56.58
1889.3  23688.44  13381.74  56.49
1892.7  23560.49  13269.19  56.32
1896.2  23413.27  13142.43  56.13
1899.7  23209.25  12978.98  55.92
1903.1  23142.50  12944.62  55.93
1906.6  23284.20  12998.07  55.82
1910.0  23641.63  13189.83  55.79
1913.5  24082.47  13493.60  56.03
1917.0  24628.98  13883.80  56.37
1920.4  25053.95  14237.30  56.83
1923.8  25086.73  14430.74  57.52
1871.2  21828.79  12041.89  55.17
1873.9  21992.11  12288.23  55.88
1876.7  22156.72  12467.94  56.27
1879.5  22368.96  12592.20  56.29
1882.3  22103.08  12428.85  56.23
1885.1  21946.52  12355.33  56.30
1887.8  22068.08  12391.99  56.15
1890.6  21822.87  12196.58  55.89
1893.4  21750.67  12119.56  55.72
1896.2  21682.13  12038.75  55.52
1898.9  21614.52  11908.86  55.10
1901.7  21461.80  11733.16  54.67
1904.5  21657.26  11780.83  54.40
1907.2  21622.00  11678.67  54.01
1910.0  21512.91  11560.59  53.74
1912.7  21473.88  11528.27  53.69
1915.5  21387.02  11464.37  53.60
1918.2  21326.87  11428.00  53.59
1921.0  21159.50  11335.04  53.57
1923.7  21210.60  11352.34  53.52
1926.5  21207.41  11349.48  53.52
1929.2  21180.03  11334.50  53.52
1932.0  21153.04  11318.07  53.51
1934.7  21108.13  11277.88  53.43
1937.4  20985.88  11219.76  53.46
1940.2  20941.69  11229.96  53.62
1942.9  21040.95  11319.28  53.80
1945.6  21034.30  11375.33  54.08
1948.3  20953.04  11361.48  54.22
1951.1  20946.59  11369.77  54.28
1953.8  20949.00  11406.00  54.45
1956.5  20812.26  11367.03  54.62
1959.2  20870.20  11429.77  54.77
1961.9  20880.86  11451.15  54.84
1964.6  20765.50  11405.16  54.92
1967.3  20814.13  11450.34  55.01
1970.0  20648.96  11347.65  54.96
1972.8  20547.54  11289.14  54.94
1975.5  20609.59  11299.86  54.83
1978.2  20556.80  11213.77  54.55
1980.9  20442.90  11095.46  54.28
1983.5  20332.16  11011.92  54.16
1986.2  20335.08  10958.09  53.89
1988.9  20352.54  10877.58  53.45
1991.6  20178.18  10678.08  52.92
1994.3  20021.93  10445.18  52.17
1997.0  20047.82  10255.06  51.15
1999.7  20006.90  9973.30  49.85
2002.3  19987.08  9719.30  48.63
2005.0  19903.66  9473.82  47.60
2007.7  19802.93  9273.67  46.83
2010.4  19742.33  9107.45  46.13
2013.0  19684.56  8903.90  45.23
2015.7  19550.67  8596.04  43.97
2018.4  19445.35  8294.41  42.65
2021.0  19399.83  8133.56  41.93
2023.7  19272.21  8101.23  42.04
2026.4  19215.30  8210.58  42.73
2029.0  19139.02  8294.42  43.34
2031.7  19015.32  8223.73  43.25
2034.3  19009.68  8092.28  42.57
2037.0  18888.65  7857.61  41.60
2039.6  18809.95  7662.58  40.74
2042.3  18768.09  7621.82  40.61
2044.9  18678.50  7718.43  41.32
2047.5  18656.06  7942.83  42.58
2050.2  18564.00  8148.93  43.90
2052.8  18496.80  8346.80  45.13
2055.4  18370.53  8445.16  45.97
2058.1  18222.40  8428.00  46.25
2060.7  18164.71  8418.54  46.35
2063.3  18093.83  8375.79  46.29
2065.9  18025.79  8295.90  46.02
2068.6  17958.79  8193.54  45.62
2071.2  17950.86  8108.67  45.17
2073.8  17825.38  7987.38  44.81
2076.4  17752.17  7876.44  44.37
2079.0  17784.49  7809.93  43.91
2081.6  17757.76  7733.85  43.55
2084.2  17714.42  7632.61  43.09
2086.8  17575.26  7480.00  42.56
2089.4  17476.70  7338.46  41.99
2092.1  17379.67  7202.33  41.44
2094.7  17322.90  7080.39  40.87
2097.2  17308.83  7000.22  40.44
2099.8  17282.11  6921.20  40.05
2102.4  17168.05  6758.60  39.37
2105.0  17051.55  6580.65  38.59
2107.6  16978.92  6435.33  37.90
2110.2  16924.97  6262.09  37.00
2112.8  16902.26  6070.26  35.91
2115.3  16895.66  5943.65  35.18
2117.9  16908.01  5875.88  34.75
2120.5  16886.60  5834.86  34.55
2123.1  16792.43  5832.45  34.73
2125.6  16744.21  5820.55  34.76
2128.2  16658.59  5740.17  34.46
2130.8  16549.65  5655.00  34.17
2133.3  16508.80  5592.89  33.88
2135.9  16408.62  5520.53  33.64
2138.4  16250.87  5403.21  33.25
2141.0  16149.08  5277.25  32.68
2143.6  16130.03  5185.14  32.15
2146.1  15975.72  5060.79  31.68
2148.7  15802.20  4949.26  31.32
2151.2  15798.93  4934.84  31.24
2153.8  15823.36  4991.89  31.55
2156.3  15717.64  5063.98  32.22
2158.8  15646.76  5150.61  32.92
2161.4  15629.12  5224.45  33.43
2163.9  15531.82  5238.21  33.73
2166.4  15439.71  5210.63  33.75
2169.0  15407.19  5179.09  33.61
2171.5  15330.32  5131.79  33.47
2174.0  15229.03  5091.22  33.43
2176.5  15192.19  5095.96  33.54
2179.1  15136.64  5096.75  33.67
2181.6  15050.17  5082.63  33.77
2184.1  15027.32  5121.01  34.08
2186.6  15051.45  5198.13  34.54
2189.1  14948.97  5193.78  34.74
2191.6  14892.73  5232.11  35.13
2194.1  14904.32  5315.78  35.67
2196.6  14914.76  5355.41  35.91
2199.2  14971.93  5434.82  36.30
2201.7  14888.99  5468.01  36.73
2204.1  14839.59  5499.95  37.06
2206.6  14849.13  5570.13  37.51
2209.1  14825.85  5621.99  37.92
2211.6  14838.39  5638.94  38.00
2214.1  14807.49  5659.41  38.22
2216.6  14760.32  5673.45  38.44
2219.1  14771.72  5648.12  38.24
2221.6  14667.09  5627.52  38.37
2224.0  14588.49  5591.81  38.33
2226.5  14584.57  5562.91  38.14
2229.0  14625.21  5590.72  38.23
2231.5  14492.72  5497.33  37.93
2233.9  14462.04  5433.85  37.57
2236.4  14490.44  5428.45  37.46
2238.9  14372.38  5366.88  37.34
2241.3  14369.01  5316.96  37.00
2243.8  14353.46  5252.18  36.59
2246.2  14192.48  5131.41  36.16
2248.7  14165.54  5016.24  35.41
2251.2  14158.84  4920.75  34.75
2253.6  14077.44  4828.16  34.30
2256.1  14069.76  4751.36  33.77
2258.5  14052.82  4711.16  33.52
2260.9  13974.74  4637.80  33.19
2263.4  13979.21  4599.60  32.90
2265.8  13940.32  4616.00  33.11
2268.3  13823.21  4597.48  33.26
2270.7  13902.44  4632.87  33.32
2273.1  13859.69  4658.25  33.61
2275.6  13793.28  4664.32  33.82
2278.0  13820.63  4723.46  34.18
2280.4  13780.88  4762.95  34.56
2282.8  13643.75  4715.69  34.56
2285.3  13694.71  4729.51  34.54
2287.7  13772.94  4783.63  34.73
2290.1  13623.19  4734.78  34.76
2292.5  13587.57  4698.51  34.58
2294.9  13621.40  4668.24  34.27
2297.3  13518.19  4540.34  33.59
2299.7  13416.44  4403.71  32.82
2302.1  13368.12  4275.34  31.98
2304.5  13230.00  4082.03  30.85
2306.9  13132.00  3927.84  29.91
2309.3  13055.89  3841.27  29.42
2311.7  12972.13  3775.85  29.11
2314.1  12811.40  3728.29  29.10
2316.5  12745.90  3745.63  29.39
2318.9  12782.83  3761.67  29.43
2321.3  12752.61  3739.81  29.33
2323.7  12794.64  3764.38  29.42
2326.1  12779.13  3768.05  29.49
2328.4  12774.57  3801.18  29.76
2330.8  12850.78  3911.40  30.44
2333.2  12766.83  3979.68  31.17
2335.6  12679.19  4057.57  32.00
2337.9  12711.97  4151.08  32.65
2340.3  12649.58  4191.34  33.13
2342.7  12593.44  4233.08  33.61
2345.0  12548.90  4290.55  34.19
2347.4  12490.75  4367.58  34.97
2349.7  12332.30  4384.15  35.55
2352.1  12260.35  4454.15  36.33
2354.4  12293.23  4523.28  36.79
2356.8  12267.97  4506.60  36.73
2359.2  12202.67  4493.66  36.83
2361.5  12151.88  4447.69  36.60
2363.8  12147.35  4413.63  36.33
2366.2  12114.60  4392.74  36.26
2368.5  12055.05  4307.60  35.73
2370.9  12078.00  4231.77  35.04
2373.2  12073.55  4135.44  34.25
2375.5  11918.85  3992.56  33.50
2377.9  11847.11  3938.40  33.24
2380.2  11871.10  3967.72  33.42
2382.5  11795.37  3991.53  33.84
2384.8  11725.28  4029.07  34.36
2387.2  11706.77  4069.47  34.76
2389.5  11690.85  4043.32  34.59
2391.8  11683.69  4002.31  34.26
2394.1  11631.16  3993.81  34.34
2396.4  11573.29  3975.50  34.35
2398.7  11628.67  3991.52  34.32
2401.0  11516.91  3993.92  34.68
2403.3  11364.36  3954.12  34.79
2405.6  11396.20  3988.67  35.00
2407.9  11327.61  4013.01  35.43
2410.2  11249.92  4000.64  35.56
2412.5  11215.24  3992.49  35.60
2414.8  11184.03  3998.45  35.75
2417.1  11138.88  3957.28  35.53
2419.4  11144.19  3898.82  34.99
2421.7  11023.23  3819.85  34.65
2424.0  10957.63  3735.32  34.09
2426.2  11021.00  3691.50  33.50
2428.5  10919.43  3609.16  33.05
2430.8  10910.90  3527.97  32.33
2433.1  10869.73  3433.32  31.59
2435.4  10753.59  3366.33  31.30
2437.6  10731.21  3351.41  31.23
2439.9  10623.58  3292.27  30.99
2442.2  10642.87  3248.04  30.52
2444.4  10630.91  3151.18  29.64
2446.7  10506.16  2984.24  28.40
2448.9  10564.25  2897.67  27.43
2451.2  10584.96  2741.60  25.90
2453.4  10444.21  2523.16  24.16
2455.7  10436.14  2432.67  23.31
2457.9  10354.08  2340.25  22.60
2460.2  10295.55  2219.40  21.56
2462.4  10283.52  2186.08  21.26
2464.7  10150.11  2151.14  21.19
2466.9  10098.66  2122.88  21.02
2469.2  10156.77  2199.45  21.65
2471.4  10037.89  2238.67  22.30
2473.6  9935.38  2265.14  22.80
2475.9  9895.84  2352.61  23.77
2478.1  9796.61  2379.70  24.29
2480.3  9746.33  2387.85  24.50
2482.5  9728.88  2473.32  25.42
2484.8  9691.90  2478.19  25.57
2487.0  9643.48  2473.83  25.65
2489.2  9626.45  2517.80  26.16
2491.4  9537.09  2487.38  26.08
2493.6  9539.25  2456.01  25.75
2495.8  9525.76  2518.03  26.43
2498.0  9476.69  2559.00  27.00
2500.2  9528.68  2558.39  26.85
2502.4  9759.12  2675.84  27.42
2504.6  9850.11  2760.66  28.03
2506.8  9985.21  2812.10  28.16
