/*** Spectra Vista SIG Data ***/
name= RS2.sig
comm= Resampled spectral data SIG file reprocesed for matching/overlap;Averaged Ref/Tar of files: RD5S4,RD5S5,RD5S6
data=
346.0  366.28  135.89  37.10
356.0  580.02  156.34  26.95
366.0  764.64  180.11  23.55
376.0  1054.72  197.11  18.69
386.0  1321.48  197.33  14.93
396.0  1668.03  245.44  14.71
406.0  2032.56  246.44  12.12
416.0  2484.09  289.24  11.64
426.0  2825.64  315.00  11.15
436.0  3449.00  355.07  10.30
446.0  4016.12  402.83  10.03
456.0  4559.32  437.58  9.60
466.0  5430.31  518.80  9.55
476.0  6200.82  594.58  9.59
486.0  6683.18  605.56  9.06
496.0  7759.25  725.53  9.35
506.0  8620.16  884.31  10.26
516.0  8958.85  1057.38  11.80
526.0  9944.82  1336.31  13.44
536.0  11306.85  1685.07  14.90
546.0  12443.50  1988.16  15.98
556.0  12537.38  2131.11  17.00
566.0  13373.89  2480.04  18.54
576.0  14717.24  3072.08  20.87
586.0  15778.76  3818.43  24.20
596.0  16643.71  4711.00  28.30
606.0  16939.11  5667.30  33.46
616.0  18066.83  7092.18  39.26
626.0  19907.23  8954.27  44.98
636.0  19564.29  9801.63  50.10
646.0  19659.63  9744.95  49.57
656.0  19192.34  9672.15  50.40
666.0  20282.32  9634.57  47.50
676.0  21596.49  10298.39  47.69
686.0  23461.59  14684.52  62.59
696.0  24117.97  20246.05  83.95
706.0  24329.51  22664.52  93.16
716.0  23886.32  23136.45  96.86
726.0  23086.04  22687.26  98.27
736.0  22569.89  22273.00  98.68
746.0  23814.03  23764.47  99.79
756.0  24266.56  24189.05  99.68
766.0  25278.75  25475.66  100.78
776.0  25925.56  26308.59  101.48
786.0  26060.85  26710.24  102.49
796.0  25580.60  26190.97  102.39
806.0  24835.91  25588.06  103.03
816.0  24700.16  25452.59  103.05
826.0  24523.61  25012.89  102.00
836.0  24895.68  24975.91  100.32
846.0  25503.02  25498.00  99.98
856.0  25926.24  25783.15  99.45
866.0  26083.86  25852.12  99.11
876.0  26142.33  25742.01  98.47
886.0  26278.55  25510.99  97.08
896.0  26059.51  24905.29  95.57
906.0  26042.54  24527.18  94.18
916.0  25872.97  23876.16  92.28
926.0  25848.12  23057.56  89.20
936.0  26639.41  22494.45  84.44
946.0  27323.34  21720.40  79.49
956.0  27983.10  20557.88  73.47
966.0  28580.08  20199.23  70.68
976.0  29061.46  20503.79  70.55
986.0  29600.63  18702.46  63.18
996.0  29854.54  19685.30  65.94
1006.0  29773.67  20253.19  68.02
1016.0  29961.72  21070.50  70.32
1026.0  29958.18  21803.21  72.78
1036.0  29727.72  22318.24  75.08
1046.0  29945.01  23097.68  77.13
1056.0  30102.43  23701.79  78.74
1066.0  30105.99  23969.90  79.62
1076.0  29996.46  23899.03  79.67
1086.0  30084.70  23763.11  78.99
1096.0  30105.40  23369.68  77.63
1106.0  30068.25  22798.27  75.82
1116.0  29868.35  22044.08  73.80
1126.0  29809.45  21011.13  70.48
1136.0  29822.39  19157.13  64.24
1146.0  29809.91  16958.90  56.89
1156.0  29735.93  15568.94  52.36
1166.0  29672.84  15050.72  50.72
1176.0  29648.36  14834.06  50.03
1186.0  29704.47  14696.80  49.48
1196.0  29371.18  14414.92  49.08
1206.0  29121.56  14289.28  49.07
1216.0  28966.90  14345.34  49.52
1226.0  28785.60  14471.84  50.27
1236.0  28657.09  14619.35  51.01
1246.0  28484.90  14703.64  51.62
1256.0  28333.73  14728.93  51.98
1266.0  28154.79  14678.93  52.14
1276.0  28214.44  14629.89  51.85
1286.0  28244.54  14440.21  51.13
1296.0  28080.90  13993.21  49.83
1306.0  27749.33  13279.10  47.85
1316.0  27339.86  12406.19  45.38
1326.0  26940.91  11417.71  42.38
1336.0  26516.39  10424.35  39.31
1346.0  26100.07  9536.77  36.54
1356.0  25456.23  8684.44  34.12
1366.0  25028.25  7984.48  31.90
1376.0  24975.46  7158.47  28.66
1386.0  24740.24  5842.83  23.62
1396.0  24477.47  4545.56  18.57
1406.0  24216.63  3649.04  15.07
1416.0  24200.46  3188.79  13.18
1426.0  24158.30  2963.27  12.27
1436.0  24072.41  2855.25  11.86
1446.0  23956.60  2805.21  11.71
1456.0  23813.94  2782.88  11.69
1466.0  23700.42  2816.46  11.88
1476.0  23484.85  2903.06  12.36
1486.0  23331.72  3070.44  13.16
1496.0  23130.98  3282.62  14.19
1506.0  22945.06  3436.81  14.98
1516.0  22702.48  3540.19  15.59
1526.0  22502.83  3689.76  16.40
1536.0  22328.41  3846.35  17.23
1546.0  22104.85  3992.35  18.06
1556.0  21942.04  4145.20  18.89
1566.0  21758.45  4278.79  19.66
1576.0  21478.18  4414.87  20.56
1586.0  21278.88  4536.43  21.32
1596.0  21035.80  4602.82  21.88
1606.0  20794.20  4671.47  22.47
1616.0  20552.01  4734.59  23.04
1626.0  20323.44  4805.20  23.64
1636.0  20065.83  4840.48  24.12
1646.0  19774.62  4838.98  24.47
1656.0  19480.49  4813.74  24.71
1666.0  19194.30  4774.68  24.88
1676.0  18944.19  4713.44  24.88
1686.0  18931.40  4664.18  24.64
1696.0  18711.77  4549.37  24.31
1706.0  18450.64  4387.62  23.78
1716.0  18035.90  4169.64  23.12
1726.0  17776.34  3991.92  22.46
1736.0  17557.88  3871.50  22.05
1746.0  17326.38  3740.16  21.59
1756.0  17015.40  3559.26  20.92
1766.0  16759.66  3421.55  20.42
1776.0  16615.26  3339.30  20.10
1786.0  16444.78  3259.02  19.82
1796.0  16217.15  3197.11  19.71
1806.0  16004.96  3162.30  19.76
1816.0  15766.24  3109.57  19.72
1826.0  15451.08  3038.75  19.67
1836.0  15063.08  2932.97  19.47
1846.0  14855.31  2842.87  19.14
1856.0  14691.59  2683.60  18.27
1866.0  14522.35  2340.37  16.12
1876.0  14253.69  1890.39  13.26
1886.0  14110.56  1545.14  10.95
1896.0  13808.32  1358.73  9.84
1906.0  12793.00  657.47  5.14
1916.0  12616.65  647.23  5.13
1926.0  12521.17  637.48  5.09
1936.0  12420.38  639.75  5.15
1946.0  12399.95  651.16  5.25
1956.0  12267.23  657.11  5.36
1966.0  12255.75  686.48  5.60
1976.0  12167.54  705.61  5.80
1986.0  11984.38  721.29  6.02
1996.0  11804.14  735.68  6.23
2006.0  11722.12  767.29  6.55
2016.0  11520.71  774.04  6.72
2026.0  11331.47  795.10  7.02
2036.0  11153.81  803.32  7.20
2046.0  11015.78  823.41  7.47
2056.0  10803.98  838.62  7.76
2066.0  10617.95  840.95  7.92
2076.0  10467.51  850.40  8.12
2086.0  10367.19  875.35  8.44
2096.0  10196.33  885.58  8.69
2106.0  9977.58  895.28  8.97
2116.0  9951.76  925.47  9.30
2126.0  9831.36  931.51  9.47
2136.0  9625.43  928.26  9.64
2146.0  9388.88  936.78  9.98
2156.0  9207.43  946.73  10.28
2166.0  9064.45  945.98  10.44
2176.0  8911.97  946.69  10.62
2186.0  8812.47  948.34  10.76
2196.0  8746.91  947.82  10.84
2206.0  8717.01  934.01  10.71
2216.0  8632.54  948.97  10.99
2226.0  8558.94  917.50  10.72
2236.0  8436.18  890.10  10.55
2246.0  8282.68  846.05  10.21
2256.0  8199.17  811.73  9.90
2266.0  8120.13  780.43  9.61
2276.0  8038.92  744.64  9.26
2286.0  7958.54  720.18  9.05
2296.0  7926.13  684.17  8.63
2306.0  7675.85  625.57  8.15
2316.0  7429.53  613.22  8.25
2326.0  7404.63  615.46  8.31
2336.0  7366.33  582.37  7.91
2346.0  7276.21  563.35  7.74
2356.0  7132.49  534.96  7.50
2366.0  7038.59  525.35  7.46
2376.0  6898.87  520.32  7.54
2386.0  6807.05  491.33  7.22
2396.0  6685.66  463.93  6.94
2406.0  6574.61  451.35  6.87
2416.0  6463.16  456.06  7.06
2426.0  6354.84  419.41  6.60
2436.0  6210.96  419.79  6.76
2446.0  6104.75  387.80  6.35
2456.0  6017.59  399.77  6.64
2466.0  5854.98  378.87  6.47
2476.0  5727.20  360.98  6.30
2486.0  5577.85  374.11  6.71
2496.0  5547.28  322.22  5.81
2506.0  5804.94  352.72  6.08
