/*** Spectra Vista SIG Data ***/
name= RS2.sig
comm= SIG file reprocesed for matching/overlap;Averaged Ref/Tar of files: RD5S4,RD5S5,RD5S6
data=
346.4  366.28  135.89  37.10
347.9  400.03  130.10  32.52
349.5  432.12  137.69  31.86
351.1  468.00  142.27  30.40
352.6  496.51  144.21  29.04
354.2  520.33  151.41  29.10
355.7  575.84  154.01  26.75
357.3  598.14  166.44  27.83
358.8  616.87  167.30  27.12
360.4  668.33  174.00  26.04
361.9  686.05  171.34  24.97
363.5  715.01  170.82  23.89
365.1  743.78  176.15  23.68
366.6  778.54  182.75  23.47
368.2  824.27  177.28  21.51
369.7  873.39  179.36  20.54
371.3  928.49  184.38  19.86
372.8  977.74  195.66  20.01
374.4  1016.27  194.02  19.09
375.9  1052.58  197.28  18.74
377.4  1084.71  194.72  17.95
379.0  1129.79  196.04  17.35
380.5  1157.14  194.09  16.77
382.1  1186.43  195.03  16.44
383.6  1234.64  197.31  15.98
385.2  1293.88  194.70  15.05
386.7  1345.63  199.63  14.84
388.3  1410.38  202.91  14.39
389.8  1464.46  212.28  14.50
391.3  1527.57  218.71  14.32
392.9  1567.60  229.87  14.66
394.4  1609.87  234.24  14.55
395.9  1662.63  244.92  14.73
397.5  1749.05  253.23  14.48
399.0  1827.74  257.91  14.11
400.6  1876.29  251.68  13.41
402.1  1904.04  245.96  12.92
403.6  1943.17  242.63  12.49
405.1  1994.81  243.43  12.20
406.7  2061.92  248.79  12.07
408.2  2135.06  254.83  11.94
409.7  2198.56  264.02  12.01
411.3  2272.05  270.81  11.92
412.8  2335.64  280.29  12.00
414.3  2399.77  289.13  12.05
415.8  2475.00  287.67  11.62
417.4  2547.71  300.23  11.78
418.9  2612.23  306.64  11.74
420.4  2658.25  310.40  11.68
421.9  2705.56  308.47  11.40
423.5  2743.63  311.64  11.36
425.0  2788.02  314.35  11.28
426.5  2844.45  315.33  11.09
428.0  2917.63  314.17  10.77
429.5  3009.90  320.48  10.65
431.1  3112.45  325.08  10.44
432.6  3227.88  335.80  10.40
434.1  3329.29  348.30  10.46
435.6  3423.98  353.72  10.33
437.1  3517.80  358.80  10.20
438.6  3607.74  369.42  10.24
440.1  3694.39  376.68  10.20
441.6  3790.73  381.81  10.07
443.1  3873.83  390.42  10.08
444.7  3959.99  397.85  10.05
446.2  4024.76  403.60  10.03
447.7  4101.41  412.22  10.05
449.2  4174.20  413.57  9.91
450.7  4238.00  419.61  9.90
452.2  4313.18  421.56  9.77
453.7  4393.64  425.89  9.69
455.2  4491.99  432.95  9.64
456.7  4618.24  441.64  9.56
458.2  4761.06  451.55  9.48
459.7  4899.13  468.30  9.56
461.2  5044.37  481.26  9.54
462.7  5165.05  492.85  9.54
464.2  5287.79  502.39  9.50
465.7  5408.14  516.19  9.54
467.2  5518.98  529.25  9.59
468.7  5631.00  540.53  9.60
470.2  5705.20  558.50  9.79
471.7  5821.13  564.93  9.70
473.2  6011.22  583.15  9.70
474.6  6153.75  592.50  9.63
476.1  6204.18  594.73  9.59
477.6  6220.94  585.68  9.41
479.1  6250.52  581.67  9.31
480.6  6293.37  580.65  9.23
482.1  6374.96  585.86  9.19
483.6  6474.12  590.36  9.12
485.1  6599.29  599.87  9.09
486.6  6739.10  609.36  9.04
488.0  6898.13  628.12  9.11
489.5  7058.36  641.05  9.08
491.0  7224.81  658.55  9.12
492.5  7392.87  679.11  9.19
494.0  7557.79  695.86  9.21
495.4  7702.20  716.98  9.31
496.9  7844.83  738.36  9.41
498.4  7990.29  761.17  9.53
499.9  8131.50  781.12  9.61
501.4  8263.45  803.87  9.73
502.8  8392.79  827.17  9.86
504.3  8499.60  855.60  10.07
505.8  8611.18  881.10  10.23
507.2  8674.01  903.55  10.42
508.7  8728.20  930.51  10.66
510.2  8764.92  949.53  10.83
511.6  8789.76  975.42  11.10
513.1  8840.43  1001.57  11.33
514.6  8904.34  1030.05  11.57
516.0  8958.85  1057.38  11.80
517.5  9056.55  1087.82  12.01
519.0  9171.31  1125.70  12.27
520.5  9287.32  1162.43  12.52
521.9  9437.16  1205.94  12.78
523.4  9612.27  1250.05  13.00
524.8  9785.79  1298.43  13.27
526.3  9984.58  1345.78  13.48
527.8  10184.06  1398.56  13.73
529.2  10366.76  1450.61  13.99
530.7  10567.61  1498.86  14.18
532.1  10746.40  1547.24  14.40
533.6  10959.02  1598.72  14.59
535.0  11168.56  1651.42  14.79
536.5  11376.00  1701.90  14.96
538.0  11592.92  1756.09  15.15
539.4  11785.91  1807.05  15.33
540.9  12037.93  1861.14  15.46
542.3  12246.63  1910.73  15.60
543.8  12400.56  1950.79  15.73
545.2  12445.48  1978.93  15.90
546.6  12442.01  1995.09  16.04
548.1  12455.19  2017.17  16.20
549.5  12460.55  2033.78  16.32
551.0  12456.77  2053.44  16.48
552.4  12484.13  2075.22  16.62
553.9  12491.52  2093.83  16.76
555.3  12509.64  2118.87  16.94
556.8  12569.08  2145.09  17.07
558.2  12630.94  2180.70  17.26
559.6  12713.51  2219.86  17.46
561.1  12831.00  2266.33  17.66
562.5  12959.42  2320.21  17.90
564.0  13129.35  2382.78  18.15
565.4  13288.41  2446.18  18.41
566.8  13487.87  2525.19  18.72
568.3  13678.39  2599.24  19.00
569.7  13879.32  2683.50  19.33
571.1  14074.77  2766.87  19.66
572.6  14269.77  2856.17  20.02
574.0  14463.08  2944.04  20.36
575.4  14650.03  3033.90  20.71
576.9  14818.07  3129.36  21.12
578.3  14977.46  3226.32  21.54
579.7  15131.24  3325.15  21.98
581.1  15254.19  3427.74  22.47
582.6  15387.18  3534.25  22.97
584.0  15508.86  3640.47  23.47
585.4  15681.05  3758.22  23.97
586.8  15909.04  3898.71  24.51
588.3  16162.38  4043.21  25.02
589.7  16371.81  4184.86  25.56
591.1  16519.39  4317.49  26.14
592.5  16589.78  4432.39  26.72
594.0  16627.80  4550.11  27.36
595.4  16637.76  4663.17  28.03
596.8  16651.64  4774.77  28.67
598.2  16659.51  4890.14  29.35
599.6  16659.36  5007.47  30.06
601.0  16705.59  5146.33  30.81
602.4  16752.94  5277.99  31.50
603.9  16822.23  5429.59  32.28
605.3  16905.11  5586.12  33.04
606.7  16973.10  5748.48  33.87
608.1  17114.04  5931.63  34.66
609.5  17255.15  6125.27  35.50
610.9  17434.91  6334.28  36.33
612.3  17598.49  6534.42  37.13
613.7  17818.60  6761.17  37.94
615.1  17967.42  6962.76  38.75
616.5  18122.06  7164.08  39.53
617.9  18356.64  7405.26  40.34
619.3  18578.68  7643.65  41.14
620.7  18848.67  7904.02  41.93
622.1  19119.58  8157.11  42.66
623.5  19414.06  8432.07  43.43
624.9  19741.18  8739.89  44.27
626.3  19952.52  9012.73  45.17
627.7  19741.37  9110.52  46.15
629.1  19544.02  9208.12  47.11
630.5  19457.12  9351.94  48.06
631.9  19461.81  9504.49  48.84
633.3  19457.49  9622.84  49.46
634.7  19533.17  9760.09  49.97
636.1  19566.68  9804.82  50.11
637.5  19597.55  9822.39  50.12
638.9  19677.50  9826.38  49.94
640.2  19731.43  9826.26  49.80
641.6  19754.28  9825.50  49.74
643.0  19715.36  9807.77  49.75
644.4  19707.26  9787.57  49.66
645.8  19650.11  9740.39  49.57
647.2  19716.78  9772.31  49.56
648.5  19765.84  9800.09  49.58
649.9  19671.60  9801.66  49.83
651.3  19608.23  9854.90  50.26
652.7  19503.68  9913.04  50.83
654.1  19390.95  9839.34  50.74
655.5  19238.75  9717.71  50.51
656.8  19118.09  9599.26  50.21
658.2  19225.93  9592.82  49.90
659.6  19449.31  9645.32  49.59
660.9  19643.18  9670.91  49.23
662.3  19825.21  9675.77  48.81
663.7  20008.80  9668.40  48.32
665.0  20165.89  9644.47  47.83
666.4  20328.89  9630.61  47.37
667.8  20535.62  9646.44  46.97
669.1  20711.76  9668.21  46.68
670.5  20914.18  9726.66  46.51
671.9  21055.86  9793.09  46.51
673.2  21237.33  9921.79  46.72
674.6  21400.77  10084.02  47.12
676.0  21596.49  10298.39  47.69
677.3  21793.24  10570.53  48.50
678.7  21992.69  10921.65  49.66
680.0  22269.19  11379.24  51.10
681.4  22542.00  11956.47  53.04
682.8  22829.63  12641.11  55.37
684.1  23112.18  13443.15  58.16
685.5  23364.31  14325.95  61.32
686.8  23617.23  15258.23  64.61
688.2  23841.32  16204.86  67.97
689.5  23927.84  17046.47  71.24
690.9  23997.39  17851.06  74.39
692.2  24047.78  18577.26  77.25
693.6  24110.83  19250.82  79.84
694.9  24095.99  19808.09  82.20
696.2  24121.97  20325.68  84.26
697.6  24149.95  20781.92  86.05
698.9  24174.48  21192.16  87.66
700.3  24215.57  21564.70  89.05
701.6  24264.40  21905.38  90.28
703.0  24323.35  22197.01  91.26
704.3  24329.34  22432.61  92.20
705.6  24327.41  22614.25  92.96
707.0  24334.75  22790.19  93.65
708.3  24282.08  22894.28  94.28
709.6  24223.21  22972.12  94.84
711.0  24124.28  22999.78  95.34
712.3  24015.02  23018.07  95.85
713.6  23977.17  23081.74  96.27
714.9  23907.38  23097.23  96.61
716.3  23880.58  23147.15  96.93
717.6  23876.83  23208.70  97.20
718.9  23805.06  23194.11  97.43
720.2  23675.16  23109.98  97.61
721.6  23576.15  23042.13  97.73
722.9  23446.45  22959.17  97.92
724.2  23274.82  22826.78  98.08
725.5  23133.68  22725.30  98.23
726.8  23009.81  22626.39  98.33
728.1  22933.91  22557.92  98.36
729.5  22856.87  22503.05  98.45
730.8  22796.53  22447.87  98.47
732.1  22719.29  22380.63  98.51
733.4  22660.56  22332.02  98.55
734.7  22602.67  22280.46  98.57
736.0  22569.89  22273.00  98.68
737.3  22520.76  22243.59  98.77
738.6  22554.56  22302.19  98.88
739.9  22633.16  22417.76  99.05
741.2  22698.59  22507.58  99.16
742.5  22841.25  22686.64  99.32
743.8  23091.34  22993.74  99.58
745.1  23491.07  23415.07  99.68
746.4  23957.57  23919.77  99.84
747.7  24466.55  24415.14  99.79
749.0  24948.63  24880.84  99.73
750.3  25229.30  25101.80  99.49
751.6  25175.69  25018.41  99.38
752.9  24925.64  24756.74  99.32
754.2  24630.59  24479.34  99.39
755.4  24314.44  24213.93  99.59
756.7  24210.69  24160.02  99.79
758.0  24235.24  24225.59  99.96
759.3  24394.18  24434.30  100.16
760.6  24621.52  24700.37  100.32
761.9  24823.09  24944.99  100.49
763.1  24955.30  25113.49  100.63
764.4  25125.21  25297.19  100.68
765.7  25257.38  25445.33  100.74
767.0  25349.99  25576.76  100.89
768.2  25431.84  25680.71  100.98
769.5  25509.93  25774.79  101.04
770.8  25646.87  25934.87  101.12
772.0  25674.66  26007.54  101.30
773.3  25762.96  26098.10  101.30
774.6  25839.71  26219.20  101.47
775.8  25921.43  26300.54  101.46
777.1  25948.26  26352.85  101.56
778.4  25918.05  26354.69  101.68
779.6  25945.86  26382.35  101.68
780.9  25904.00  26374.93  101.82
782.1  25811.51  26323.56  101.98
783.4  25819.04  26367.19  102.12
784.6  25849.06  26425.29  102.23
785.9  26028.56  26673.77  102.48
787.1  26416.14  27111.44  102.63
788.4  26716.91  27404.13  102.57
789.6  26732.54  27313.57  102.17
790.9  26499.75  27023.13  101.98
792.1  26215.36  26758.67  102.07
793.4  25939.41  26526.81  102.26
794.6  25766.06  26370.35  102.35
795.8  25608.38  26213.71  102.36
797.1  25427.85  26065.91  102.51
798.3  25301.10  25972.65  102.65
799.5  25235.55  25930.81  102.76
800.8  25155.70  25871.42  102.85
802.0  25074.70  25814.02  102.95
803.2  24986.56  25729.04  102.97
804.5  24925.76  25669.71  102.98
805.7  24855.66  25605.79  103.02
806.9  24776.64  25534.88  103.06
808.1  24708.89  25473.70  103.10
809.4  24677.19  25429.97  103.05
810.6  24617.78  25376.26  103.08
811.8  24606.91  25360.91  103.06
813.0  24601.75  25363.98  103.10
814.2  24620.30  25388.37  103.12
815.4  24684.78  25452.17  103.11
816.6  24715.54  25453.01  102.98
817.9  24752.29  25449.65  102.82
819.1  24717.85  25380.71  102.68
820.3  24615.89  25269.74  102.66
821.5  24558.22  25181.81  102.54
822.7  24525.20  25117.13  102.41
823.9  24512.51  25085.92  102.34
825.1  24512.73  25033.07  102.12
826.3  24527.23  25006.16  101.95
827.5  24554.23  24995.49  101.80
828.7  24585.24  24957.18  101.51
829.9  24620.63  24928.66  101.25
831.0  24677.45  24944.72  101.08
832.2  24735.00  24933.15  100.80
833.4  24800.15  24944.22  100.58
834.6  24827.34  24955.00  100.51
835.8  24886.58  24970.05  100.34
837.0  24941.18  25005.22  100.26
838.1  25036.55  25065.13  100.11
839.3  25073.20  25101.93  100.11
840.5  25138.07  25158.77  100.08
841.7  25214.76  25232.08  100.07
842.9  25311.78  25317.19  100.02
844.0  25352.29  25355.73  100.01
845.2  25454.19  25462.42  100.03
846.4  25527.43  25515.79  99.95
847.5  25656.16  25636.01  99.92
848.7  25745.00  25727.40  99.93
849.9  25879.71  25805.82  99.71
851.0  25913.04  25825.51  99.66
852.2  25966.07  25857.88  99.58
853.3  25941.98  25834.03  99.58
854.5  25934.86  25810.92  99.52
855.6  25916.94  25776.24  99.46
856.8  25944.85  25796.96  99.43
857.9  25943.54  25783.48  99.38
859.1  25996.60  25838.29  99.39
860.2  26027.46  25830.06  99.24
861.4  26023.97  25833.37  99.27
862.5  26059.24  25851.53  99.20
863.7  26115.12  25879.14  99.10
864.8  26101.25  25884.46  99.17
865.9  26082.46  25851.92  99.12
867.1  26099.25  25854.34  99.06
868.2  26099.69  25847.54  99.03
869.3  26128.19  25840.11  98.90
870.5  26099.47  25779.52  98.77
871.6  26087.08  25776.70  98.81
872.7  26136.21  25792.15  98.68
873.9  26148.82  25785.41  98.61
875.0  26142.73  25765.13  98.56
876.1  26142.29  25739.70  98.46
877.2  26184.05  25714.62  98.21
878.3  26169.01  25691.90  98.18
879.4  26191.11  25698.92  98.12
880.5  26214.48  25706.64  98.06
881.7  26220.35  25673.35  97.91
882.8  26271.44  25654.32  97.65
883.9  26272.50  25631.45  97.56
885.0  26275.91  25557.53  97.27
886.1  26278.81  25506.34  97.06
887.2  26194.66  25375.09  96.87
888.3  26154.69  25277.32  96.65
889.4  26083.75  25176.20  96.52
890.5  26060.47  25101.14  96.32
891.6  26043.45  25035.63  96.13
892.7  26025.13  24985.58  96.01
893.8  26046.70  24978.91  95.90
894.9  26070.72  24958.99  95.74
896.0  26059.51  24905.29  95.57
897.0  26054.12  24885.89  95.52
898.1  26079.30  24864.50  95.34
899.2  26095.96  24834.44  95.17
900.3  26052.56  24750.79  95.00
901.4  26029.33  24687.48  94.84
902.4  26018.83  24645.99  94.72
903.5  26017.27  24590.20  94.51
904.6  26012.16  24548.53  94.37
905.7  26050.43  24542.73  94.21
906.7  26024.14  24490.89  94.11
907.8  26076.86  24464.31  93.82
908.9  26057.48  24385.74  93.58
909.9  26017.06  24341.17  93.56
911.0  26009.49  24253.30  93.25
912.1  25979.15  24187.54  93.10
913.1  25944.88  24094.03  92.87
914.2  25856.17  23988.81  92.78
915.2  25844.13  23922.72  92.57
916.3  25883.78  23858.70  92.18
917.3  25847.25  23785.33  92.02
918.4  25819.06  23683.33  91.73
919.4  25792.96  23600.68  91.50
920.5  25804.34  23506.95  91.10
921.5  25824.68  23449.42  90.80
922.6  25820.42  23328.79  90.35
923.6  25802.74  23275.86  90.21
924.7  25837.63  23182.73  89.72
925.7  25830.51  23092.70  89.40
926.7  25889.20  22975.57  88.75
927.8  25949.67  22915.66  88.31
928.8  26061.51  22890.26  87.83
929.9  26114.55  22819.52  87.38
930.9  26214.58  22813.69  87.03
931.9  26363.30  22802.06  86.49
932.9  26568.63  22821.41  85.90
934.0  26604.58  22728.83  85.43
935.0  26610.78  22636.54  85.07
936.0  26639.41  22494.45  84.44
937.0  26632.91  22354.67  83.94
938.1  26589.57  22219.29  83.56
939.1  26594.73  22092.97  83.07
940.1  26647.30  22039.76  82.71
941.1  26757.94  22009.99  82.26
942.1  26950.86  21978.94  81.55
943.1  27064.46  21937.34  81.06
944.1  27200.04  21898.90  80.51
945.2  27250.86  21805.90  80.02
946.2  27341.46  21699.02  79.36
947.2  27385.31  21585.47  78.82
948.2  27528.14  21500.37  78.10
949.2  27562.84  21407.53  77.67
950.2  27601.23  21254.84  77.01
951.2  27696.06  21124.88  76.27
952.2  27776.58  20993.21  75.58
953.2  27874.44  20919.38  75.05
954.2  27994.28  20827.62  74.40
955.2  28013.52  20682.02  73.83
956.2  27975.49  20526.84  73.37
957.2  28074.45  20469.26  72.91
958.2  28163.05  20412.64  72.48
959.2  28188.45  20339.64  72.16
960.1  28244.69  20271.96  71.77
961.1  28322.00  20241.44  71.47
962.1  28304.06  20199.38  71.37
963.1  28357.97  20207.83  71.26
964.1  28464.51  20186.64  70.92
965.1  28543.56  20218.36  70.83
966.1  28584.14  20197.10  70.66
967.0  28655.80  20243.49  70.64
968.0  28697.14  20263.66  70.61
969.0  28718.80  20284.35  70.63
970.0  28760.47  20265.50  70.46
971.0  28834.42  20275.61  70.32
971.9  28848.78  20361.43  70.58
972.9  28890.31  20420.74  70.68
973.9  28948.56  20399.64  70.47
974.9  29046.70  20468.70  70.47
975.8  29063.68  20492.17  70.51
976.8  29052.58  20550.29  70.73
977.8  29165.54  20660.65  70.84
978.8  29197.88  20788.66  71.20
979.7  29189.32  20818.78  71.32
981.4  29653.05  18321.12  61.78
985.3  29580.67  18627.78  62.97
989.3  29694.74  19054.53  64.17
993.3  29811.28  19485.08  65.36
997.2  29873.76  19774.28  66.19
1001.2  29847.48  20003.97  67.02
1005.2  29766.32  20200.78  67.86
1009.1  29802.16  20456.29  68.64
1013.1  29912.80  20813.17  69.58
1017.1  29980.27  21168.10  70.61
1021.0  29997.45  21465.46  71.56
1025.0  29986.05  21755.88  72.55
1029.0  29874.56  21945.19  73.46
1032.9  29757.39  22124.83  74.35
1036.9  29719.10  22374.39  75.29
1040.9  29786.91  22672.40  76.12
1044.8  29914.06  23005.69  76.91
1048.8  30017.23  23312.35  77.66
1052.7  30081.05  23558.75  78.32
1056.7  30106.96  23732.13  78.83
1060.7  30124.55  23870.08  79.24
1064.6  30126.20  23968.15  79.56
1068.6  30068.46  23973.15  79.73
1072.5  30024.99  23934.91  79.72
1076.5  29992.38  23893.90  79.67
1080.4  29983.51  23833.38  79.49
1084.4  30049.89  23791.80  79.17
1088.3  30134.74  23721.87  78.72
1092.3  30115.74  23551.57  78.20
1096.2  30104.84  23359.85  77.59
1100.2  30142.18  23169.96  76.87
1104.1  30082.71  22914.12  76.17
1108.1  30052.27  22670.23  75.44
1112.0  29977.43  22385.28  74.67
1116.0  29868.35  22044.08  73.80
1119.9  29779.89  21661.65  72.74
1123.9  29822.35  21302.23  71.43
1127.8  29798.40  20761.60  69.67
1131.8  29786.58  20053.30  67.32
1135.7  29821.64  19228.01  64.48
1139.6  29831.38  18306.74  61.37
1143.6  29819.95  17424.49  58.43
1147.5  29803.64  16667.91  55.93
1151.4  29713.98  16022.86  53.92
1155.4  29731.43  15607.87  52.50
1159.3  29760.66  15354.83  51.59
1163.2  29674.15  15132.92  51.00
1167.2  29672.28  15015.50  50.60
1171.1  29681.80  14939.06  50.33
1175.0  29651.52  14851.85  50.09
1179.0  29638.87  14780.68  49.87
1182.9  29697.98  14743.95  49.65
1186.8  29706.14  14684.63  49.43
1190.7  29571.10  14571.47  49.28
1194.7  29411.94  14445.78  49.12
1198.6  29289.65  14353.19  49.00
1202.5  29196.66  14307.62  49.00
1206.4  29112.98  14287.18  49.07
1210.3  29056.59  14295.14  49.20
1214.2  29008.58  14329.72  49.40
1218.2  28915.95  14364.43  49.68
1222.1  28833.10  14410.00  49.98
1226.0  28785.60  14471.84  50.27
1229.9  28734.48  14533.66  50.58
1233.8  28673.70  14587.33  50.87
1237.7  28644.25  14644.10  51.12
1241.6  28596.57  14688.05  51.36
1245.5  28494.07  14702.20  51.60
1249.4  28422.55  14713.44  51.77
1253.3  28356.92  14718.32  51.90
1257.2  28323.43  14733.64  52.02
1261.1  28264.79  14730.66  52.12
1265.0  28184.91  14697.45  52.15
1268.9  28067.43  14625.21  52.11
1272.8  28106.70  14614.80  52.00
1276.7  28238.01  14633.19  51.82
1280.6  28297.17  14599.97  51.60
1284.5  28250.81  14486.44  51.28
1288.4  28234.52  14366.25  50.88
1292.3  28165.50  14190.92  50.38
1296.2  28076.33  13982.53  49.80
1300.1  27971.71  13739.93  49.12
1303.9  27830.79  13447.59  48.32
1307.8  27679.51  13134.68  47.45
1311.7  27513.83  12800.40  46.52
1315.6  27356.90  12445.38  45.49
1319.5  27190.78  12063.30  44.37
1323.3  27036.43  11682.28  43.21
1327.2  26898.46  11300.12  42.01
1331.1  26745.75  10911.73  40.80
1335.0  26551.82  10517.41  39.61
1338.8  26417.20  10163.78  38.47
1342.7  26306.22  9843.66  37.42
1346.5  26068.84  9490.27  36.40
1350.4  25867.11  9166.98  35.44
1354.3  25587.95  8831.23  34.51
1358.1  25293.52  8503.11  33.62
1362.0  25095.25  8232.59  32.81
1365.8  25024.00  7996.27  31.95
1369.7  25106.98  7766.35  30.93
1373.5  25078.13  7444.12  29.68
1377.4  24917.97  6998.51  28.09
1381.2  24782.40  6475.43  26.13
1385.1  24754.66  5959.74  24.08
1389.0  24692.16  5453.16  22.08
1392.8  24567.88  4939.17  20.10
1396.6  24460.52  4471.76  18.28
1400.5  24320.99  4075.43  16.76
1404.3  24225.89  3755.44  15.50
1408.2  24204.64  3511.35  14.51
1412.0  24174.50  3327.64  13.77
1415.8  24201.79  3194.60  13.20
1419.6  24176.54  3084.20  12.76
1423.5  24162.30  3004.20  12.43
1427.3  24156.22  2941.98  12.18
1431.1  24149.78  2898.50  12.00
1434.9  24082.82  2861.65  11.88
1438.8  24045.91  2838.96  11.81
1442.6  24021.66  2824.99  11.76
1446.4  23948.95  2802.88  11.70
1450.2  23899.20  2787.48  11.66
1454.0  23823.72  2777.80  11.66
1457.8  23805.13  2787.46  11.71
1461.6  23794.65  2802.23  11.78
1465.4  23719.51  2813.62  11.86
1469.2  23598.58  2831.62  12.00
1473.0  23505.47  2863.71  12.18
1476.8  23479.35  2913.56  12.41
1480.7  23444.07  2970.30  12.67
1484.4  23358.60  3036.20  13.00
1488.2  23294.76  3117.52  13.38
1492.0  23212.99  3198.76  13.78
1495.8  23134.48  3279.04  14.17
1499.6  23068.04  3347.09  14.51
1503.4  22989.82  3401.50  14.80
1507.2  22924.40  3453.10  15.06
1510.9  22832.54  3491.07  15.29
1514.7  22729.47  3522.58  15.50
1518.5  22650.58  3574.05  15.78
1522.3  22564.73  3632.47  16.10
1526.0  22502.83  3689.76  16.40
1529.8  22457.39  3750.05  16.70
1533.6  22379.96  3804.88  17.00
1537.3  22300.49  3868.81  17.35
1541.1  22218.14  3930.51  17.69
1544.8  22130.40  3977.60  17.97
1548.6  22049.49  4024.30  18.25
1552.4  21992.28  4087.15  18.58
1556.1  21940.64  4146.81  18.90
1559.9  21881.16  4190.30  19.15
1563.6  21806.79  4238.89  19.44
1567.3  21732.27  4300.41  19.79
1571.1  21585.13  4338.20  20.10
1574.8  21494.94  4393.67  20.44
1578.6  21441.85  4460.79  20.80
1582.3  21360.05  4504.06  21.09
1586.0  21278.88  4536.43  21.32
1589.8  21182.42  4561.78  21.54
1593.5  21087.16  4583.02  21.73
1597.2  21011.15  4612.32  21.95
1600.9  20910.91  4635.39  22.17
1604.7  20817.19  4661.82  22.39
1608.4  20751.75  4689.29  22.60
1612.1  20653.79  4707.48  22.79
1615.8  20554.46  4732.60  23.02
1619.5  20509.10  4769.39  23.25
1623.2  20415.20  4795.01  23.49
1626.9  20293.94  4808.48  23.69
1630.6  20187.64  4821.45  23.88
1634.3  20108.09  4838.42  24.06
1638.0  20016.12  4842.90  24.19
1641.7  19907.78  4840.03  24.31
1645.4  19793.59  4840.67  24.46
1649.1  19676.58  4830.26  24.55
1652.8  19573.89  4823.62  24.64
1656.4  19468.81  4812.51  24.72
1660.1  19373.12  4798.01  24.77
1663.8  19253.37  4783.33  24.84
1667.5  19154.03  4768.79  24.90
1671.1  19073.44  4748.31  24.89
1674.8  18955.63  4719.66  24.90
1678.5  18920.35  4700.49  24.84
1682.1  18926.99  4684.34  24.75
1685.8  18934.59  4666.00  24.64
1689.5  18875.64  4632.27  24.54
1693.1  18777.51  4588.32  24.44
1696.8  18693.63  4538.63  24.28
1700.4  18605.80  4484.51  24.10
1704.0  18533.22  4430.78  23.91
1707.7  18380.44  4350.93  23.67
1711.3  18186.09  4262.19  23.44
1715.0  18064.01  4189.83  23.19
1718.6  17962.81  4117.13  22.92
1722.2  17869.77  4053.46  22.68
1725.9  17778.98  3993.51  22.46
1729.5  17683.82  3936.15  22.26
1733.1  17615.86  3895.98  22.12
1736.7  17543.89  3865.59  22.03
1740.3  17426.02  3814.44  21.89
1744.0  17375.79  3769.70  21.70
1747.5  17289.32  3718.01  21.50
1751.2  17148.24  3643.22  21.25
1754.8  17043.21  3576.71  20.99
1758.4  16959.78  3524.35  20.78
1762.0  16844.84  3467.24  20.58
1765.5  16763.61  3425.03  20.43
1769.1  16735.20  3400.00  20.32
1772.7  16687.95  3370.03  20.19
1776.3  16608.65  3336.51  20.09
1779.9  16528.93  3301.21  19.97
1783.5  16504.40  3278.56  19.86
1787.0  16420.93  3251.20  19.80
1790.6  16313.97  3220.77  19.74
1794.2  16250.54  3203.82  19.72
1797.8  16183.76  3190.39  19.71
1801.3  16118.56  3177.50  19.71
1804.9  16020.38  3165.75  19.76
1808.4  15971.30  3154.76  19.75
1812.0  15882.75  3136.73  19.75
1815.5  15784.84  3114.53  19.73
1819.1  15650.89  3078.83  19.67
1822.6  15532.45  3055.31  19.67
1826.2  15446.30  3037.78  19.67
1829.7  15337.22  3009.00  19.62
1833.2  15178.78  2968.67  19.56
1836.8  15030.02  2922.77  19.45
1840.3  14950.04  2888.61  19.32
1843.8  14886.20  2861.76  19.22
1847.3  14837.06  2831.70  19.09
1850.8  14793.41  2790.14  18.86
1854.3  14722.56  2724.89  18.51
1857.8  14658.80  2639.87  18.01
1861.3  14629.20  2535.25  17.33
1864.8  14572.84  2396.45  16.44
1868.3  14425.58  2232.88  15.48
1871.8  14284.80  2073.60  14.52
1875.3  14255.61  1915.70  13.44
1878.8  14246.03  1789.13  12.56
1882.3  14193.40  1665.82  11.74
1885.8  14118.50  1549.98  10.98
1889.3  13979.52  1465.24  10.48
1892.7  13865.36  1387.13  10.00
1896.2  13804.86  1357.01  9.83
1899.7  13707.11  1350.69  9.85
1901.7  12697.20  687.77  5.42
1904.5  12812.38  655.96  5.12
1907.2  12777.50  658.67  5.15
1910.0  12693.31  661.47  5.21
1912.7  12674.55  647.21  5.11
1915.5  12622.22  646.04  5.12
1918.2  12592.16  652.45  5.18
1921.0  12470.84  642.97  5.16
1923.7  12502.92  633.65  5.07
1926.5  12525.14  638.31  5.10
1929.2  12499.59  638.13  5.11
1932.0  12466.20  639.37  5.13
1934.7  12450.39  647.22  5.20
1937.4  12388.06  631.71  5.10
1940.2  12333.29  630.03  5.11
1942.9  12377.93  649.60  5.25
1945.6  12406.16  649.30  5.23
1948.3  12364.25  661.84  5.35
1951.1  12353.04  665.21  5.38
1953.8  12345.00  658.00  5.33
1956.5  12249.55  656.91  5.36
1959.2  12291.89  660.79  5.38
1961.9  12307.40  677.45  5.50
1964.6  12224.28  680.29  5.57
1967.3  12284.97  692.22  5.63
1970.0  12156.72  681.79  5.61
1972.8  12093.19  685.41  5.67
1975.5  12180.79  708.25  5.81
1978.2  12109.24  693.99  5.73
1980.9  12027.29  697.66  5.80
1983.5  11996.88  716.42  5.97
1986.2  11983.38  721.68  6.02
1988.9  11983.38  732.35  6.11
1991.6  11899.51  734.79  6.17
1994.3  11798.84  724.97  6.14
1997.0  11807.25  741.98  6.28
1999.7  11770.96  748.55  6.36
2002.3  11768.44  756.56  6.43
2005.0  11742.55  766.15  6.52
2007.7  11687.40  769.22  6.58
2010.4  11651.26  773.71  6.64
2013.0  11630.36  763.41  6.56
2015.7  11528.64  773.88  6.71
2018.4  11457.30  775.35  6.77
2021.0  11452.33  786.72  6.87
2023.7  11380.16  794.29  6.98
2026.4  11323.00  795.24  7.02
2029.0  11263.54  805.08  7.15
2031.7  11193.43  798.05  7.13
2034.3  11193.43  797.12  7.12
2037.0  11130.51  806.97  7.25
2039.6  11076.09  818.68  7.39
2042.3  11047.98  814.42  7.37
2044.9  11026.46  819.06  7.43
2047.5  11001.21  829.35  7.54
2050.2  10900.40  837.20  7.68
2052.8  10894.80  845.60  7.76
2055.4  10822.84  841.43  7.77
2058.1  10738.00  828.80  7.72
2060.7  10718.83  836.64  7.81
2063.3  10653.43  841.57  7.90
2065.9  10619.50  840.29  7.91
2068.6  10577.63  857.97  8.11
2071.2  10537.83  853.74  8.10
2073.8  10490.95  845.10  8.06
2076.4  10463.25  851.36  8.14
2079.0  10439.15  865.48  8.29
2081.6  10423.40  867.44  8.32
2084.2  10414.77  878.48  8.43
2086.8  10346.04  873.96  8.45
2089.4  10282.92  868.02  8.44
2092.1  10234.00  877.39  8.57
2094.7  10195.43  884.23  8.67
2097.2  10197.17  886.83  8.70
2099.8  10202.45  898.60  8.81
2102.4  10082.46  893.75  8.86
2105.0  9986.40  886.35  8.88
2107.6  9963.47  909.57  9.13
2110.2  9945.83  900.81  9.06
2112.8  9950.08  901.00  9.06
2115.3  9950.34  924.69  9.29
2117.9  9955.62  927.57  9.32
2120.5  9928.49  926.97  9.34
2123.1  9866.03  941.85  9.55
2125.6  9842.13  934.14  9.49
2128.2  9772.14  917.02  9.38
2130.8  9719.78  932.10  9.59
2133.3  9694.67  937.69  9.67
2135.9  9628.08  927.61  9.63
2138.4  9561.93  943.92  9.87
2141.0  9493.76  939.29  9.89
2143.6  9481.01  923.48  9.74
2146.1  9385.04  937.33  9.99
2148.7  9294.55  937.78  10.09
2151.2  9319.20  938.67  10.07
2153.8  9286.22  951.68  10.25
2156.3  9196.68  946.05  10.29
2158.8  9176.01  941.13  10.26
2161.4  9166.37  953.29  10.40
2163.9  9107.40  950.35  10.43
2166.4  9056.27  945.15  10.44
2169.0  9041.49  950.08  10.51
2171.5  8982.35  938.25  10.45
2174.0  8919.05  938.12  10.52
2176.5  8910.20  948.83  10.65
2179.1  8872.37  941.65  10.61
2181.6  8820.83  932.78  10.57
2184.1  8802.64  943.51  10.72
2186.6  8815.58  949.87  10.77
2189.1  8766.51  937.32  10.69
2191.6  8725.27  936.44  10.73
2194.1  8759.24  941.14  10.74
2196.6  8743.02  949.93  10.87
2199.2  8762.69  954.64  10.89
2201.7  8728.52  950.34  10.89
2204.1  8693.38  930.91  10.71
2206.6  8724.47  934.99  10.72
2209.1  8690.36  943.73  10.86
2211.6  8648.75  919.94  10.64
2214.1  8641.19  939.01  10.87
2216.6  8629.81  952.12  11.03
2219.1  8603.23  931.86  10.83
2221.6  8565.00  927.56  10.83
2224.0  8580.12  924.56  10.78
2226.5  8553.64  915.74  10.71
2229.0  8526.93  926.29  10.86
2231.5  8456.64  911.54  10.78
2233.9  8447.09  895.38  10.60
2236.4  8434.10  889.09  10.54
2238.9  8377.75  874.46  10.44
2241.3  8418.52  862.84  10.25
2243.8  8391.31  856.36  10.21
2246.2  8272.81  845.11  10.22
2248.7  8260.98  825.33  9.99
2251.2  8270.85  839.13  10.15
2253.6  8217.60  847.36  10.31
2256.1  8198.40  810.24  9.88
2258.5  8205.80  801.63  9.77
2260.9  8176.22  810.47  9.91
2263.4  8125.75  791.98  9.75
2265.8  8124.16  782.15  9.63
2268.3  8073.80  760.69  9.42
2270.7  8110.40  756.15  9.32
2273.1  8107.19  764.44  9.43
2275.6  8037.12  747.52  9.30
2278.0  8047.94  730.23  9.07
2280.4  8050.71  741.45  9.21
2282.8  7936.92  734.32  9.25
2285.3  7936.09  721.93  9.10
2287.7  8013.06  715.92  8.93
2290.1  7946.20  705.01  8.87
2292.5  7908.89  697.10  8.81
2294.9  7966.56  694.18  8.71
2297.3  7878.36  672.35  8.53
2299.7  7782.17  647.53  8.32
2302.1  7817.38  659.96  8.44
2304.5  7722.40  633.73  8.21
2306.9  7647.92  620.67  8.12
2309.3  7632.91  624.32  8.18
2311.7  7536.00  616.23  8.18
2314.1  7439.51  607.82  8.17
2316.5  7426.90  614.64  8.28
2318.9  7433.98  613.59  8.25
2321.3  7420.20  608.78  8.20
2323.7  7439.58  620.30  8.34
2326.1  7403.11  615.25  8.31
2328.4  7412.50  603.47  8.14
2330.8  7505.15  610.77  8.14
2333.2  7417.12  587.55  7.92
2335.6  7356.75  578.46  7.86
2337.9  7411.84  600.96  8.11
2340.3  7376.47  590.57  8.01
2342.7  7282.70  558.58  7.67
2345.0  7270.29  554.90  7.63
2347.4  7284.50  575.17  7.90
2349.7  7133.68  542.50  7.60
2352.1  7080.04  540.33  7.63
2354.4  7143.83  557.35  7.80
2356.8  7126.82  523.76  7.35
2359.2  7067.67  535.89  7.58
2361.5  7038.06  539.60  7.67
2363.8  7031.06  510.90  7.27
2366.2  7039.27  526.66  7.48
2368.5  7035.45  525.10  7.46
2370.9  7023.13  502.50  7.15
2373.2  6987.82  523.11  7.49
2375.5  6900.63  524.90  7.61
2377.9  6892.20  502.94  7.30
2380.2  6890.83  505.51  7.34
2382.5  6864.93  499.33  7.27
2384.8  6830.08  481.01  7.04
2387.2  6784.02  501.65  7.39
2389.5  6780.31  514.66  7.59
2391.8  6787.76  488.01  7.19
2394.1  6727.26  476.64  7.09
2396.4  6676.90  461.26  6.91
2398.7  6732.64  459.56  6.83
2401.0  6690.59  469.78  7.02
2403.3  6603.48  461.48  6.99
2405.6  6572.81  446.52  6.79
2407.9  6583.14  474.28  7.20
2410.2  6542.40  469.58  7.18
2412.5  6479.13  430.25  6.64
2414.8  6475.24  465.57  7.19
2417.1  6452.08  447.35  6.93
2419.4  6434.35  420.27  6.53
2421.7  6386.85  446.82  7.00
2424.0  6345.28  422.67  6.66
2426.2  6355.80  419.08  6.59
2428.5  6327.75  439.88  6.95
2430.8  6349.25  432.37  6.81
2433.1  6300.57  420.40  6.67
2435.4  6204.86  417.76  6.73
2437.6  6227.24  425.22  6.83
2439.9  6165.27  409.90  6.65
2442.2  6149.09  411.46  6.69
2444.4  6162.60  415.43  6.74
2446.7  6079.44  375.71  6.18
2448.9  6081.55  396.75  6.52
2451.2  6103.04  415.21  6.80
2453.4  6038.72  377.67  6.25
2455.7  6026.93  397.34  6.59
2457.9  5958.48  415.14  6.97
2460.2  5949.23  365.79  6.15
2462.4  5977.92  380.64  6.37
2464.7  5891.98  403.73  6.85
2466.9  5829.36  361.66  6.20
2469.2  5872.39  358.65  6.11
2471.4  5796.90  354.51  6.12
2473.6  5737.62  341.45  5.95
2475.9  5730.24  361.25  6.30
2478.1  5663.45  355.25  6.27
2480.3  5645.91  313.28  5.55
2482.5  5682.93  352.65  6.21
2484.8  5614.17  378.65  6.74
2487.0  5547.59  370.33  6.68
2489.2  5555.75  356.82  6.42
2491.4  5471.72  333.02  6.09
2493.6  5479.00  321.37  5.87
2495.8  5550.75  322.01  5.80
2498.0  5512.53  324.27  5.88
2500.2  5509.95  342.62  6.22
2502.4  5736.48  367.04  6.40
2504.6  5803.02  350.56  6.04
2506.8  5806.03  353.95  6.10
