/*** Spectra Vista SIG Data ***/
name= GS.sig
comm= Averaged Ref/Tar of files: GS1,GS2,GS3
data=
346.4  468.20  212.34  45.35
347.9  473.76  212.31  44.81
349.5  521.04  206.96  39.72
351.1  558.48  218.40  39.11
352.6  585.06  218.21  37.30
354.2  625.05  229.08  36.65
355.7  673.50  235.72  35.00
357.3  724.71  247.35  34.13
358.8  751.43  248.15  33.02
360.4  798.47  255.61  32.01
361.9  821.87  258.87  31.50
363.5  851.78  262.00  30.76
365.1  887.68  256.60  28.91
366.6  918.37  266.99  29.07
368.2  973.68  261.88  26.90
369.7  1008.89  253.58  25.13
371.3  1073.36  272.18  25.36
372.8  1148.72  273.35  23.80
374.4  1191.49  271.45  22.78
375.9  1247.87  284.66  22.81
377.4  1278.23  281.89  22.05
379.0  1330.29  283.24  21.29
380.5  1360.26  280.05  20.59
382.1  1412.49  281.71  19.94
383.6  1460.03  274.05  18.77
385.2  1529.00  277.75  18.17
386.7  1608.26  284.29  17.68
388.3  1679.42  298.02  17.75
389.8  1759.55  299.21  17.00
391.3  1843.67  317.49  17.22
392.9  1897.62  323.38  17.04
394.4  1955.58  336.32  17.20
395.9  2019.02  361.10  17.88
397.5  2131.80  375.76  17.63
399.0  2240.25  375.95  16.78
400.6  2303.62  375.45  16.30
402.1  2342.64  362.06  15.46
403.6  2375.92  361.23  15.20
405.1  2451.81  366.36  14.94
406.7  2542.40  378.56  14.89
408.2  2650.73  388.33  14.65
409.7  2746.24  406.19  14.79
411.3  2843.51  426.11  14.99
412.8  2936.43  447.14  15.23
414.3  3034.90  469.10  15.46
415.8  3152.50  485.00  15.38
417.4  3253.58  509.37  15.66
418.9  3339.60  529.61  15.86
420.4  3424.70  542.54  15.84
421.9  3487.22  552.57  15.85
423.5  3546.87  557.29  15.71
425.0  3613.98  565.62  15.65
426.5  3695.85  578.35  15.65
428.0  3801.23  587.02  15.44
429.5  3926.30  605.01  15.41
431.1  4071.24  621.78  15.27
432.6  4225.66  645.96  15.29
434.1  4373.60  667.34  15.26
435.6  4514.36  686.28  15.20
437.1  4642.95  713.05  15.36
438.6  4769.06  736.22  15.44
440.1  4906.69  769.87  15.69
441.6  5042.30  796.33  15.79
443.1  5179.95  828.23  15.99
444.7  5318.34  864.47  16.25
446.2  5433.01  905.85  16.67
447.7  5551.25  940.67  16.95
449.2  5676.48  976.32  17.20
450.7  5788.64  1010.88  17.46
452.2  5916.62  1044.73  17.66
453.7  6028.91  1077.15  17.87
455.2  6201.73  1115.90  17.99
456.7  6390.56  1158.08  18.12
458.2  6607.30  1205.19  18.24
459.7  6823.25  1243.67  18.23
461.2  7031.76  1286.10  18.29
462.7  7219.07  1324.00  18.34
464.2  7396.86  1360.91  18.40
465.7  7583.22  1398.11  18.44
467.2  7742.35  1427.07  18.43
468.7  7912.00  1474.67  18.64
470.2  8015.91  1518.23  18.94
471.7  8177.13  1560.38  19.08
473.2  8446.52  1587.92  18.80
474.6  8688.33  1611.64  18.55
476.1  8747.12  1636.64  18.71
477.6  8779.39  1667.79  19.00
479.1  8829.54  1688.22  19.12
480.6  8916.06  1711.66  19.20
482.1  9046.91  1740.76  19.24
483.6  9204.08  1780.47  19.34
485.1  9394.00  1827.36  19.45
486.6  9626.34  1887.49  19.61
488.0  9867.00  1959.21  19.86
489.5  10130.90  2035.98  20.10
491.0  10387.73  2120.98  20.42
492.5  10649.88  2223.72  20.88
494.0  10928.34  2336.42  21.38
495.4  11158.95  2454.10  21.99
496.9  11406.10  2589.06  22.70
498.4  11649.48  2731.13  23.44
499.9  11878.23  2887.69  24.31
501.4  12101.58  3058.41  25.27
502.8  12308.24  3249.59  26.40
504.3  12497.40  3448.80  27.60
505.8  12681.02  3662.31  28.88
507.2  12808.72  3877.29  30.27
508.7  12896.48  4096.78  31.77
510.2  12964.78  4334.14  33.43
511.6  13008.39  4559.82  35.05
513.1  13093.74  4817.74  36.79
514.6  13195.49  5088.46  38.56
516.0  13281.41  5357.01  40.33
517.5  13429.99  5666.90  42.20
519.0  13603.01  5989.14  44.03
520.5  13772.72  6323.29  45.91
521.9  13993.28  6671.99  47.68
523.4  14243.35  7029.70  49.35
524.8  14493.24  7385.57  50.96
526.3  14778.04  7748.06  52.43
527.8  15074.01  8102.52  53.75
529.2  15339.71  8424.24  54.92
530.7  15629.94  8752.44  56.00
532.1  15903.48  9056.19  56.94
533.6  16214.37  9363.18  57.75
535.0  16534.98  9669.66  58.48
536.5  16856.03  9958.15  59.08
538.0  17178.24  10251.87  59.68
539.4  17501.02  10518.13  60.10
540.9  17879.62  10810.47  60.46
542.3  18237.67  11071.08  60.70
543.8  18504.51  11287.24  61.00
545.2  18600.74  11408.93  61.34
546.6  18637.00  11494.97  61.68
548.1  18690.38  11577.28  61.94
549.5  18745.60  11644.46  62.12
551.0  18790.92  11702.68  62.28
552.4  18868.34  11769.10  62.37
553.9  18922.09  11802.07  62.37
555.3  18999.63  11840.99  62.32
556.8  19143.87  11889.84  62.11
558.2  19276.31  11934.56  61.91
559.6  19441.66  11980.08  61.62
561.1  19660.88  12051.00  61.29
562.5  19883.82  12124.51  60.98
564.0  20177.05  12221.94  60.57
565.4  20444.07  12286.99  60.10
566.8  20774.24  12373.69  59.56
568.3  21077.79  12424.85  58.95
569.7  21403.31  12467.99  58.25
571.1  21706.83  12483.40  57.51
572.6  22010.94  12493.98  56.76
574.0  22299.75  12498.20  56.05
575.4  22570.31  12494.81  55.36
576.9  22820.49  12483.82  54.70
578.3  23040.88  12457.69  54.07
579.7  23243.15  12437.78  53.51
581.1  23410.31  12394.41  52.94
582.6  23592.46  12367.59  52.42
584.0  23735.52  12329.92  51.95
585.4  23971.18  12329.30  51.43
586.8  24286.87  12365.91  50.92
588.3  24642.54  12432.42  50.45
589.7  24935.04  12485.46  50.07
591.1  25126.37  12490.50  49.71
592.5  25213.30  12459.59  49.42
594.0  25248.06  12412.76  49.16
595.4  25246.58  12354.79  48.94
596.8  25248.80  12305.15  48.74
598.2  25256.70  12252.77  48.51
599.6  25254.00  12197.13  48.30
601.0  25321.45  12168.38  48.06
602.4  25392.58  12125.84  47.75
603.9  25508.50  12107.10  47.46
605.3  25652.08  12075.61  47.07
606.7  25770.60  12027.60  46.67
608.1  26003.60  12007.55  46.18
609.5  26249.20  11992.07  45.69
610.9  26543.12  11983.89  45.15
612.3  26820.62  11964.17  44.61
613.7  27191.20  11970.36  44.02
615.1  27470.34  11914.02  43.37
616.5  27748.85  11881.82  42.82
617.9  28163.94  11909.78  42.29
619.3  28559.37  11961.00  41.88
620.7  29021.55  12055.98  41.54
622.1  29524.34  12111.31  41.02
623.5  30070.32  12123.16  40.32
624.9  30686.25  12112.80  39.47
626.3  31117.56  12048.80  38.72
627.7  30854.43  11788.69  38.21
629.1  30617.27  11603.59  37.90
630.5  30534.25  11568.32  37.89
631.9  30583.88  11621.89  38.00
633.3  30636.73  11676.25  38.11
634.7  30802.72  11735.90  38.10
636.1  30887.16  11707.23  37.90
637.5  30991.21  11647.60  37.58
638.9  31137.59  11580.03  37.19
640.2  31275.86  11487.50  36.73
641.6  31334.94  11348.22  36.22
643.0  31307.82  11157.24  35.64
644.4  31297.86  10977.09  35.07
645.8  31223.60  10747.83  34.42
647.2  31327.01  10586.42  33.79
648.5  31378.61  10416.83  33.20
649.9  31215.99  10216.90  32.73
651.3  31061.55  10056.35  32.38
652.7  30880.50  9887.20  32.02
654.1  30705.72  9551.36  31.11
655.5  30448.41  9161.42  30.09
656.8  30219.54  8784.00  29.07
658.2  30347.48  8525.57  28.09
659.6  30667.01  8322.12  27.14
660.9  30915.41  8101.09  26.20
662.3  31175.28  7876.60  25.27
663.7  31418.10  7653.80  24.36
665.0  31622.76  7425.50  23.48
666.4  31821.65  7227.50  22.71
667.8  32088.83  7079.48  22.06
669.1  32304.87  6938.69  21.48
670.5  32567.66  6849.18  21.03
671.9  32723.64  6772.12  20.69
673.2  32957.22  6750.55  20.48
674.6  33165.65  6767.80  20.41
676.0  33416.99  6835.11  20.45
677.3  33670.84  6945.63  20.63
678.7  33959.63  7117.34  20.96
680.0  34360.72  7386.98  21.50
681.4  34770.40  7757.56  22.31
682.8  35166.95  8238.53  23.43
684.1  35575.02  8867.82  24.93
685.5  35948.61  9648.44  26.84
686.8  36307.14  10584.56  29.15
688.2  36654.12  11680.00  31.87
689.5  36792.82  12879.30  35.00
690.9  36894.22  14211.73  38.52
692.2  37000.50  15640.00  42.27
693.6  37086.31  17152.30  46.25
694.9  37102.94  18673.43  50.33
696.2  37172.03  20203.20  54.35
697.6  37238.58  21720.32  58.33
698.9  37321.68  23205.60  62.18
700.3  37412.04  24651.22  65.89
701.6  37521.51  26038.59  69.40
703.0  37648.39  27353.24  72.65
704.3  37727.46  28530.18  75.62
705.6  37779.39  29632.59  78.44
707.0  37853.11  30660.97  81.00
708.3  37804.36  31530.19  83.40
709.6  37779.31  32333.93  85.59
711.0  37700.05  33033.66  87.62
712.3  37603.29  33655.88  89.50
713.6  37599.66  34310.78  91.25
714.9  37564.50  34881.46  92.86
716.3  37606.65  35484.53  94.36
717.6  37655.10  36068.83  95.79
718.9  37643.31  36514.77  97.00
720.2  37519.65  36803.27  98.09
721.6  37437.79  37082.98  99.05
722.9  37295.06  37317.71  100.06
724.2  37099.21  37450.95  100.95
725.5  36957.59  37610.60  101.77
726.8  36833.83  37724.18  102.42
728.1  36764.75  37866.96  103.00
729.5  36694.32  37984.65  103.52
730.8  36660.60  38097.79  103.92
732.1  36590.42  38152.28  104.27
733.4  36549.03  38241.94  104.63
734.7  36509.02  38299.60  104.90
736.0  36510.50  38413.31  105.21
737.3  36452.29  38460.70  105.51
738.6  36538.42  38653.26  105.79
739.9  36706.85  38945.22  106.10
741.2  36841.35  39169.13  106.32
742.5  37078.82  39528.77  106.61
743.8  37494.19  40076.57  106.89
745.1  38118.44  40851.54  107.17
746.4  38876.11  41699.08  107.26
747.7  39639.96  42549.93  107.34
749.0  40400.48  43353.64  107.31
750.3  40850.46  43788.05  107.19
751.6  40764.46  43706.31  107.22
752.9  40356.61  43318.55  107.34
754.2  39863.99  42881.37  107.57
755.4  39350.05  42415.71  107.79
756.7  39155.03  42296.14  108.02
758.0  39142.09  42356.19  108.21
759.3  39351.46  42667.15  108.43
760.6  39645.76  43098.44  108.71
761.9  39928.94  43492.24  108.92
763.1  40078.15  43705.06  109.05
764.4  40287.45  43978.87  109.16
765.7  40433.25  44174.00  109.25
767.0  40515.07  44330.56  109.42
768.2  40595.52  44457.28  109.51
769.5  40644.33  44561.92  109.64
770.8  40787.04  44769.86  109.76
772.0  40799.41  44812.35  109.84
773.3  40833.29  44915.78  110.00
774.6  40907.98  45046.89  110.12
775.8  40955.53  45141.53  110.22
777.1  40964.33  45187.64  110.31
778.4  40867.87  45119.55  110.40
779.6  40816.98  45109.85  110.52
780.9  40688.00  45060.00  110.75
782.1  40484.72  44910.17  110.93
783.4  40464.32  44932.16  111.04
784.6  40463.12  44985.65  111.18
785.9  40670.74  45344.82  111.49
787.1  41171.80  45989.14  111.70
788.4  41528.97  46403.91  111.74
789.6  41482.13  46260.95  111.52
790.9  41134.16  45762.52  111.25
792.1  40655.28  45276.64  111.37
793.4  40180.32  44809.87  111.52
794.6  39846.60  44474.96  111.62
795.8  39587.54  44205.54  111.67
797.1  39290.10  43924.58  111.80
798.3  39054.26  43750.58  112.03
799.5  38943.25  43652.68  112.09
800.8  38778.22  43515.57  112.22
802.0  38618.88  43381.45  112.33
803.2  38465.20  43206.68  112.33
804.5  38332.71  43094.90  112.42
805.7  38219.65  42963.75  112.41
806.9  38073.35  42815.55  112.46
808.1  37984.05  42752.63  112.55
809.4  37906.28  42693.34  112.63
810.6  37824.15  42642.60  112.74
811.8  37796.29  42644.66  112.83
813.0  37827.58  42690.02  112.85
814.2  37840.50  42748.42  112.97
815.4  37955.24  42864.12  112.93
816.6  38027.91  42894.91  112.80
817.9  38102.35  42943.83  112.71
819.1  38072.96  42848.06  112.54
820.3  37949.69  42685.38  112.48
821.5  37894.61  42559.52  112.31
822.7  37866.54  42487.30  112.20
823.9  37906.28  42466.99  112.03
825.1  37943.15  42451.08  111.88
826.3  38020.73  42439.07  111.62
827.5  38108.05  42438.79  111.36
828.7  38176.32  42430.80  111.14
829.9  38262.68  42406.89  110.83
831.0  38386.63  42459.34  110.61
832.2  38533.16  42534.70  110.38
833.4  38634.36  42588.99  110.24
834.6  38746.88  42667.19  110.12
835.8  38872.58  42731.33  109.93
837.0  39026.76  42863.00  109.83
838.1  39200.00  43029.91  109.77
839.3  39334.99  43149.82  109.70
840.5  39499.16  43285.40  109.59
841.7  39675.29  43469.82  109.56
842.9  39834.34  43662.39  109.61
844.0  40002.80  43826.10  109.56
845.2  40188.33  44008.78  109.51
846.4  40315.24  44136.88  109.48
847.5  40575.08  44375.79  109.37
848.7  40794.29  44599.21  109.33
849.9  41043.27  44762.32  109.06
851.0  41176.72  44821.61  108.85
852.2  41283.01  44881.80  108.72
853.3  41336.03  44859.93  108.53
854.5  41385.60  44840.39  108.35
855.6  41408.01  44851.14  108.32
856.8  41491.09  44898.54  108.21
857.9  41535.42  44893.99  108.09
859.1  41657.80  45024.40  108.08
860.2  41711.76  45044.35  107.99
861.4  41789.90  45096.76  107.91
862.5  41857.52  45157.30  107.88
863.7  41978.22  45249.17  107.79
864.8  42001.40  45246.60  107.73
865.9  42003.19  45170.02  107.54
867.1  42077.89  45204.91  107.43
868.2  42118.25  45202.84  107.32
869.3  42153.63  45187.28  107.20
870.5  42092.46  45094.13  107.13
871.6  42122.53  45071.49  107.00
872.7  42223.14  45165.23  106.97
873.9  42262.83  45146.65  106.82
875.0  42247.20  45097.57  106.75
876.1  42225.11  45044.22  106.68
877.2  42279.84  45008.16  106.45
878.3  42302.12  44957.12  106.28
879.4  42284.06  44941.19  106.28
880.5  42343.92  44943.84  106.14
881.7  42326.05  44838.52  105.94
882.8  42351.34  44838.21  105.87
883.9  42430.09  44791.70  105.57
885.0  42357.32  44658.25  105.43
886.1  42357.47  44552.59  105.18
887.2  42241.92  44355.21  105.00
888.3  42147.85  44159.17  104.77
889.4  42045.32  43961.79  104.56
890.5  41945.29  43851.35  104.54
891.6  41864.40  43726.05  104.45
892.7  41844.69  43642.13  104.30
893.8  41881.85  43635.26  104.19
894.9  41879.31  43586.62  104.08
896.0  41812.69  43479.94  103.99
897.0  41850.92  43429.68  103.77
898.1  41821.61  43385.01  103.74
899.2  41852.54  43350.05  103.58
900.3  41747.94  43212.78  103.51
901.4  41622.41  43055.39  103.44
902.4  41658.53  43047.46  103.33
903.5  41604.82  42897.84  103.11
904.6  41550.72  42858.73  103.15
905.7  41565.54  42800.10  102.97
906.7  41536.49  42711.96  102.83
907.8  41558.34  42675.34  102.69
908.9  41493.73  42533.50  102.51
909.9  41451.58  42453.86  102.42
911.0  41358.23  42299.75  102.28
912.1  41297.17  42149.54  102.06
913.1  41189.72  41986.71  101.93
914.2  41099.85  41784.85  101.67
915.2  41068.89  41708.25  101.56
916.3  41034.15  41576.85  101.32
917.3  40975.74  41464.03  101.19
918.4  40862.80  41249.45  100.95
919.4  40836.29  41085.64  100.61
920.5  40782.84  40927.46  100.35
921.5  40833.45  40840.40  100.02
922.6  40729.18  40627.36  99.75
923.6  40739.49  40505.36  99.43
924.7  40774.75  40387.75  99.05
925.7  40746.72  40210.96  98.69
926.7  40808.40  40066.10  98.18
927.8  40839.01  39930.25  97.77
928.8  40966.59  39799.10  97.15
929.9  41048.46  39744.61  96.82
930.9  41217.18  39717.68  96.36
931.9  41378.61  39725.62  96.01
932.9  41679.25  39814.17  95.53
934.0  41702.58  39679.36  95.15
935.0  41757.18  39498.87  94.59
936.0  41670.71  39234.59  94.15
937.0  41632.50  39003.71  93.69
938.1  41580.55  38765.51  93.23
939.1  41508.45  38552.14  92.88
940.1  41591.64  38410.96  92.35
941.1  41779.29  38375.60  91.85
942.1  41991.60  38388.16  91.42
943.1  42156.63  38305.38  90.86
944.1  42391.18  38272.49  90.28
945.2  42445.20  38113.88  89.80
946.2  42493.04  37932.84  89.27
947.2  42572.63  37757.63  88.69
948.2  42750.54  37656.01  88.08
949.2  42846.38  37473.31  87.46
950.2  42880.60  37227.82  86.82
951.2  42968.52  37023.28  86.16
952.2  43001.40  36817.53  85.62
953.2  43164.71  36682.86  84.98
954.2  43310.48  36551.85  84.39
955.2  43368.34  36332.31  83.78
956.2  43301.73  36084.78  83.33
957.2  43392.87  35974.47  82.90
958.2  43492.10  35805.83  82.33
959.2  43506.45  35797.50  82.28
960.1  43588.22  35656.90  81.80
961.1  43692.83  35638.96  81.57
962.1  43658.44  35565.63  81.46
963.1  43782.00  35591.12  81.29
964.1  43817.42  35586.87  81.22
965.1  43908.74  35634.69  81.16
966.1  44007.38  35613.78  80.93
967.0  44141.86  35638.52  80.74
968.0  44131.86  35581.27  80.62
969.0  44255.20  35631.00  80.51
970.0  44255.36  35742.74  80.76
971.0  44316.83  35734.48  80.63
971.9  44400.90  35733.28  80.48
972.9  44577.14  35676.46  80.03
973.9  44494.78  35731.04  80.30
974.9  44573.29  35703.52  80.10
975.8  44702.44  35743.03  79.96
976.8  44666.28  35747.02  80.03
977.8  44950.93  35754.74  79.54
978.8  44877.90  35843.30  79.87
979.7  45104.10  35912.15  79.62
980.7  45212.81  36066.86  79.77
981.7  45433.99  36216.76  79.71
982.6  45657.51  36407.58  79.74
983.6  46147.45  36821.49  79.79
984.6  46551.05  37071.79  79.64
985.5  47031.84  37474.20  79.68
986.5  47664.14  38310.48  80.38
987.5  48852.12  39014.48  79.86
988.4  49722.20  39870.23  80.19
989.4  51183.38  40405.74  78.94
990.4  52549.20  41455.48  78.89
991.3  54023.93  42492.01  78.65
992.3  54777.10  43560.84  79.52
993.2  55874.36  44804.20  80.19
994.2  57686.85  45542.25  78.95
995.2  57633.14  46722.01  81.07
996.1  59292.71  46659.90  78.69
997.1  59931.56  46468.68  77.54
998.0  60640.20  47164.60  77.78
999.0  59258.53  46611.89  78.66
1000.0  60377.42  47001.88  77.85
1000.9  59810.48  46956.47  78.51
1001.9  59598.95  46895.32  78.68
1002.8  60212.52  46274.44  76.85
1003.8  59788.51  45532.37  76.16
1004.8  59326.80  46244.48  77.95
961.5  55398.21  39897.03  72.02
965.5  54418.85  39548.91  72.68
969.5  52458.23  38688.48  73.75
973.4  50487.36  37655.16  74.58
977.4  48611.32  36729.21  75.56
981.4  47578.80  36361.65  76.42
985.3  47203.20  36346.46  77.00
989.3  47137.31  36579.19  77.60
993.3  47133.16  36880.44  78.25
997.2  47029.21  37088.37  78.86
1001.2  46955.35  37336.91  79.52
1005.2  46914.32  37661.31  80.28
1009.1  47038.13  38154.41  81.11
1013.1  47236.75  38750.04  82.03
1017.1  47375.30  39320.44  83.00
1021.0  47429.61  39789.14  83.89
1025.0  47461.87  40221.52  84.74
1029.0  47354.18  40545.72  85.62
1032.9  47271.77  40872.22  86.46
1036.9  47308.70  41323.35  87.35
1040.9  47476.08  41879.54  88.21
1044.8  47747.63  42482.29  88.97
1048.8  47970.59  43009.47  89.66
1052.7  48104.60  43455.23  90.33
1056.7  48183.46  43771.82  90.84
1060.7  48250.82  43995.28  91.18
1064.6  48272.17  44157.05  91.48
1068.6  48190.54  44182.63  91.68
1072.5  48116.11  44144.12  91.74
1076.5  48076.67  44066.25  91.66
1080.4  48048.88  43955.04  91.48
1084.4  48150.59  43869.11  91.11
1088.3  48279.53  43751.40  90.62
1092.3  48252.92  43483.79  90.12
1096.2  48221.83  43157.89  89.50
1100.2  48245.69  42871.73  88.86
1104.1  48124.97  42464.33  88.24
1108.1  48059.38  42093.39  87.59
1112.0  47955.87  41645.33  86.84
1116.0  47754.46  41056.26  85.97
1119.9  47569.76  40403.86  84.94
1123.9  47623.80  39806.93  83.59
1127.8  47592.96  38892.80  81.72
1131.8  47556.42  37715.19  79.31
1135.7  47568.82  36374.00  76.47
1139.6  47554.30  34886.04  73.36
1143.6  47510.71  33449.79  70.40
1147.5  47481.98  32242.93  67.91
1151.4  47337.52  31245.38  66.01
1155.4  47322.86  30625.93  64.72
1159.3  47329.81  30244.25  63.90
1163.2  47159.49  29888.11  63.38
1167.2  47113.86  29689.98  63.02
1171.1  47117.13  29564.93  62.75
1175.0  47022.16  29413.79  62.55
1179.0  46962.63  29285.99  62.36
1182.9  47045.30  29229.07  62.13
1186.8  47019.62  29119.50  61.93
1190.7  46784.64  28888.82  61.75
1194.7  46508.35  28648.16  61.60
1198.6  46264.68  28484.61  61.57
1202.5  46100.54  28395.33  61.59
1206.4  45962.62  28349.75  61.68
1210.3  45829.98  28358.27  61.88
1214.2  45707.13  28373.16  62.08
1218.2  45554.16  28383.48  62.31
1222.1  45384.95  28422.64  62.63
1226.0  45257.55  28485.58  62.94
1229.9  45156.00  28555.34  63.24
1233.8  45033.17  28606.90  63.52
1237.7  44950.68  28671.00  63.78
1241.6  44841.64  28704.30  64.01
1245.5  44683.61  28690.44  64.21
1249.4  44538.65  28674.13  64.38
1253.3  44401.40  28660.75  64.55
1257.2  44324.52  28654.03  64.65
1261.1  44209.48  28613.73  64.72
1265.0  44086.55  28541.24  64.74
1268.9  43910.05  28395.45  64.67
1272.8  43969.80  28377.45  64.54
1276.7  44155.69  28404.03  64.33
1280.6  44249.88  28336.79  64.04
1284.5  44188.89  28131.08  63.66
1288.4  44167.03  27918.30  63.21
1292.3  44060.50  27614.58  62.67
1296.2  43934.23  27263.03  62.05
1300.1  43787.98  26847.85  61.31
1303.9  43564.57  26341.02  60.46
1307.8  43339.22  25803.37  59.54
1311.7  43109.06  25237.20  58.54
1315.6  42877.90  24648.52  57.49
1319.5  42633.84  24010.38  56.32
1323.3  42417.44  23362.88  55.08
1327.2  42218.70  22724.31  53.83
1331.1  42002.86  22076.84  52.56
1335.0  41739.72  21413.05  51.30
1338.8  41543.11  20815.55  50.11
1342.7  41389.31  20267.94  48.97
1346.5  41042.00  19643.95  47.86
1350.4  40741.74  19078.46  46.83
1354.3  40332.24  18479.77  45.82
1358.1  39895.31  17888.95  44.84
1362.0  39644.33  17395.20  43.88
1365.8  39567.12  16967.83  42.88
1369.7  39683.68  16570.12  41.76
1373.5  39615.26  15973.58  40.32
1377.4  39354.79  15143.40  38.48
1381.2  39167.92  14199.41  36.25
1385.1  39160.09  13280.14  33.91
1389.0  39060.88  12339.71  31.59
1392.8  38834.72  11375.42  29.29
1396.6  38680.88  10495.98  27.13
1400.5  38476.57  9720.95  25.26
1404.3  38299.58  9092.07  23.74
1408.2  38263.03  8618.62  22.52
1412.0  38218.70  8253.06  21.59
1415.8  38249.29  7993.27  20.90
1419.6  38208.11  7774.02  20.35
1423.5  38172.20  7603.51  19.92
1427.3  38125.77  7482.38  19.63
1431.1  38099.78  7393.50  19.41
1434.9  38010.73  7311.81  19.24
1438.8  37949.80  7262.16  19.14
1442.6  37913.52  7230.20  19.07
1446.4  37795.09  7190.07  19.02
1450.2  37700.99  7167.46  19.01
1454.0  37583.52  7150.84  19.03
1457.8  37547.69  7167.53  19.09
1461.6  37527.24  7202.15  19.19
1465.4  37404.28  7240.10  19.36
1469.2  37216.73  7283.79  19.57
1473.0  37080.95  7358.50  19.84
1476.8  37019.78  7475.64  20.19
1480.7  36949.43  7611.10  20.60
1484.4  36826.56  7752.00  21.05
1488.2  36723.96  7916.16  21.56
1492.0  36584.11  8083.31  22.10
1495.8  36452.33  8246.88  22.62
1499.6  36350.05  8385.20  23.07
1503.4  36216.75  8470.17  23.39
1507.2  36087.28  8474.81  23.48
1510.9  35929.91  8420.74  23.44
1514.7  35749.31  8450.28  23.64
1518.5  35615.65  8630.03  24.23
1522.3  35466.30  8849.79  24.95
1526.0  35355.47  9034.31  25.55
1529.8  35294.61  9194.41  26.05
1533.6  35159.29  9325.78  26.52
1537.3  35020.99  9451.14  26.99
1541.1  34889.16  9573.55  27.44
1544.8  34754.40  9692.00  27.89
1548.6  34607.98  9800.31  28.32
1552.4  34514.76  9918.56  28.74
1556.1  34455.77  10023.99  29.09
1559.9  34373.05  10103.48  29.39
1563.6  34243.93  10193.86  29.77
1567.3  34122.03  10307.27  30.21
1571.1  33904.82  10384.61  30.63
1574.8  33749.79  10480.52  31.05
1578.6  33637.37  10581.23  31.46
1582.3  33496.17  10639.01  31.76
1586.0  33359.51  10684.56  32.03
1589.8  33217.24  10732.36  32.31
1593.5  33051.52  10768.17  32.58
1597.2  32917.71  10807.70  32.83
1600.9  32767.31  10844.74  33.10
1604.7  32613.52  10875.18  33.35
1608.4  32493.03  10918.43  33.60
1612.1  32320.35  10948.87  33.88
1615.8  32161.00  10976.97  34.13
1619.5  32072.28  11026.55  34.38
1623.2  31915.49  11048.88  34.62
1626.9  31725.78  11050.78  34.83
1630.6  31537.44  11060.21  35.07
1634.3  31397.73  11073.63  35.27
1638.0  31241.74  11061.67  35.41
1641.7  31050.65  11031.59  35.53
1645.4  30870.63  10989.26  35.60
1649.1  30683.95  10935.93  35.64
1652.8  30504.58  10888.06  35.69
1656.4  30322.32  10831.48  35.72
1660.1  30158.02  10780.17  35.75
1663.8  29966.42  10719.33  35.77
1667.5  29809.99  10666.12  35.78
1671.1  29676.54  10613.23  35.76
1674.8  29472.79  10534.27  35.74
1678.5  29413.48  10497.80  35.69
1682.1  29419.35  10465.05  35.57
1685.8  29417.21  10425.36  35.44
1689.5  29310.65  10349.15  35.31
1693.1  29167.59  10254.99  35.16
1696.8  29020.13  10149.17  34.97
1700.4  28874.60  10029.02  34.73
1704.0  28754.23  9916.44  34.49
1707.7  28493.62  9747.81  34.21
1711.3  28200.13  9563.09  33.91
1715.0  27991.44  9419.74  33.65
1718.6  27822.35  9288.49  33.38
1722.2  27677.55  9156.82  33.08
1725.9  27527.50  9028.64  32.80
1729.5  27386.37  8922.84  32.58
1733.1  27262.24  8847.51  32.45
1736.7  27144.69  8784.34  32.36
1740.3  26982.07  8690.66  32.21
1744.0  26899.89  8602.44  31.98
1747.5  26760.07  8480.88  31.69
1751.2  26551.35  8333.63  31.39
1754.8  26397.18  8202.02  31.07
1758.4  26262.14  8082.56  30.78
1762.0  26085.49  7962.54  30.52
1765.5  25956.49  7871.76  30.33
1769.1  25915.20  7824.80  30.19
1772.7  25841.75  7772.22  30.08
1776.3  25724.16  7701.01  29.94
1779.9  25608.69  7632.26  29.80
1783.5  25553.92  7589.63  29.70
1787.0  25434.82  7531.15  29.61
1790.6  25293.30  7468.55  29.53
1794.2  25193.03  7428.84  29.49
1797.8  25095.48  7402.05  29.50
1801.3  25012.46  7378.70  29.50
1804.9  24871.88  7337.75  29.50
1808.4  24792.34  7317.51  29.52
1812.0  24660.35  7280.73  29.52
1815.5  24519.60  7230.78  29.49
1819.1  24324.68  7167.52  29.47
1822.6  24164.48  7114.95  29.44
1826.2  24042.90  7070.87  29.41
1829.7  23859.90  7009.67  29.38
1833.2  23612.46  6915.91  29.29
1836.8  23400.20  6824.40  29.16
1840.3  23257.80  6767.10  29.10
1843.8  23131.92  6726.23  29.08
1847.3  23013.03  6703.88  29.13
1850.8  22865.47  6663.55  29.14
1854.3  22692.74  6566.08  28.93
1857.8  22594.00  6413.33  28.39
1861.3  22615.25  6195.53  27.40
1864.8  22605.64  5892.95  26.07
1868.3  22468.36  5479.37  24.39
1871.8  22341.12  5053.44  22.62
1875.3  22323.21  4710.62  21.10
1878.8  22320.32  4429.00  19.84
1882.3  22237.89  4122.77  18.54
1885.8  22045.10  3809.37  17.28
1889.3  21861.76  3586.63  16.41
1892.7  21710.01  3408.79  15.70
1896.2  21503.16  3283.20  15.27
1899.7  21232.37  3243.83  15.28
1903.1  21059.81  3290.05  15.62
1906.6  21101.81  3460.80  16.40
1910.0  21348.35  3745.69  17.55
1913.5  21771.66  4157.59  19.10
1917.0  22339.63  4787.94  21.43
1920.4  22881.38  5423.74  23.70
1923.8  23136.14  5743.40  24.82
1871.2  20260.60  3907.13  19.28
1873.9  20445.79  3815.69  18.66
1876.7  20658.97  3651.18  17.67
1879.5  20770.50  3401.85  16.38
1882.3  20488.21  3148.56  15.37
1885.1  20498.36  2945.17  14.37
1887.8  20542.45  2757.13  13.42
1890.6  20318.11  2609.28  12.84
1893.4  20320.67  2464.00  12.13
1896.2  20203.65  2333.48  11.55
1898.9  20201.38  2295.27  11.36
1901.7  20074.51  2220.05  11.06
1904.5  20223.67  2145.98  10.61
1907.2  20168.50  2121.67  10.52
1910.0  20030.00  2089.61  10.43
1912.7  20048.69  2024.35  10.10
1915.5  19979.54  2013.38  10.08
1918.2  19877.64  1991.94  10.02
1921.0  19705.09  1932.34  9.81
1923.7  19733.20  1949.87  9.88
1926.5  19715.86  1946.40  9.87
1929.2  19701.76  1934.69  9.82
1932.0  19674.16  1949.72  9.91
1934.7  19635.47  1942.70  9.89
1937.4  19518.79  1939.58  9.94
1940.2  19475.71  1954.64  10.04
1942.9  19573.26  1978.24  10.11
1945.6  19572.62  1981.12  10.12
1948.3  19494.00  1984.50  10.18
1951.1  19465.67  2002.65  10.29
1953.8  19476.00  2012.00  10.33
1956.5  19368.67  2024.62  10.45
1959.2  19423.04  2052.14  10.57
1961.9  19438.54  2067.13  10.63
1964.6  19331.55  2099.36  10.86
1967.3  19375.30  2133.03  11.01
1970.0  19228.16  2115.41  11.00
1972.8  19159.08  2134.67  11.14
1975.5  19219.42  2179.39  11.34
1978.2  19120.16  2184.16  11.42
1980.9  19002.89  2196.94  11.56
1983.5  18950.70  2221.00  11.72
1986.2  18944.10  2233.91  11.79
1988.9  18909.18  2269.80  12.00
1991.6  18787.78  2281.61  12.14
1994.3  18678.85  2285.64  12.24
1997.0  18669.58  2344.15  12.56
1999.7  18631.37  2362.42  12.68
2002.3  18617.79  2365.58  12.71
2005.0  18540.12  2395.30  12.92
2007.7  18469.93  2409.91  13.05
2010.4  18400.48  2424.85  13.18
2013.0  18316.11  2446.70  13.36
2015.7  18226.45  2459.94  13.50
2018.4  18129.14  2478.30  13.67
2021.0  18062.50  2497.11  13.82
2023.7  17946.51  2498.77  13.92
2026.4  17902.73  2516.22  14.05
2029.0  17806.29  2538.94  14.26
2031.7  17677.40  2533.12  14.33
2034.3  17722.47  2547.20  14.37
2037.0  17610.64  2571.97  14.60
2039.6  17527.07  2579.83  14.72
2042.3  17481.88  2597.71  14.86
2044.9  17393.81  2608.65  15.00
2047.5  17348.93  2613.33  15.06
2050.2  17253.60  2615.20  15.16
2052.8  17214.40  2639.47  15.33
2055.4  17090.17  2647.58  15.49
2058.1  16973.60  2632.93  15.51
2060.7  16918.14  2645.00  15.63
2063.3  16842.61  2662.20  15.81
2065.9  16794.67  2677.21  15.94
2068.6  16710.92  2680.93  16.04
2071.2  16664.67  2683.98  16.11
2073.8  16591.32  2689.20  16.21
2076.4  16536.88  2720.60  16.45
2079.0  16525.61  2742.56  16.60
2081.6  16519.89  2743.94  16.61
2084.2  16487.00  2771.82  16.81
2086.8  16353.42  2762.34  16.89
2089.4  16268.28  2759.13  16.96
2092.1  16209.50  2780.44  17.15
2094.7  16113.80  2787.34  17.30
2097.2  16087.67  2800.28  17.41
2099.8  16089.36  2818.20  17.52
2102.4  15953.94  2804.48  17.58
2105.0  15826.05  2800.60  17.70
2107.6  15774.07  2824.60  17.91
2110.2  15742.83  2831.25  17.98
2112.8  15734.02  2841.38  18.06
2115.3  15735.22  2869.35  18.24
2117.9  15738.64  2872.65  18.25
2120.5  15682.70  2878.08  18.35
2123.1  15604.88  2898.68  18.58
2125.6  15567.02  2901.98  18.64
2128.2  15487.92  2893.50  18.68
2130.8  15394.28  2904.53  18.87
2133.3  15347.20  2920.62  19.03
2135.9  15264.31  2903.42  19.02
2138.4  15119.35  2890.68  19.12
2141.0  15032.51  2894.26  19.25
2143.6  14998.41  2901.37  19.34
2146.1  14847.40  2887.40  19.45
2148.7  14686.27  2865.21  19.51
2151.2  14704.80  2860.98  19.46
2153.8  14713.72  2887.41  19.62
2156.3  14589.47  2879.50  19.74
2158.8  14533.35  2856.86  19.66
2161.4  14517.59  2865.78  19.74
2163.9  14426.20  2858.90  19.82
2166.4  14354.62  2847.27  19.84
2169.0  14310.27  2852.20  19.93
2171.5  14227.48  2838.40  19.95
2174.0  14143.15  2814.35  19.90
2176.5  14124.76  2827.54  20.02
2179.1  14082.55  2812.90  19.97
2181.6  13967.33  2797.32  20.03
2184.1  13937.00  2808.96  20.15
2186.6  13993.83  2811.95  20.09
2189.1  13896.09  2784.14  20.04
2191.6  13840.87  2784.29  20.12
2194.1  13877.92  2804.60  20.21
2196.6  13844.81  2786.40  20.13
2199.2  13897.52  2801.13  20.16
2201.7  13871.80  2804.45  20.22
2204.1  13802.39  2781.74  20.15
2206.6  13786.08  2803.72  20.34
2209.1  13743.34  2793.33  20.32
2211.6  13738.26  2768.71  20.15
2214.1  13693.60  2772.68  20.25
2216.6  13643.61  2766.45  20.28
2219.1  13655.01  2761.39  20.22
2221.6  13597.41  2726.84  20.05
2224.0  13563.60  2707.64  19.96
2226.5  13534.39  2693.94  19.90
2229.0  13551.73  2702.74  19.94
2231.5  13416.49  2674.62  19.94
2233.9  13376.81  2634.83  19.70
2236.4  13409.64  2644.10  19.72
2238.9  13341.63  2616.92  19.61
2241.3  13300.17  2575.56  19.36
2243.8  13261.31  2565.20  19.34
2246.2  13153.53  2519.83  19.16
2248.7  13089.53  2500.41  19.10
2251.2  13067.33  2495.60  19.10
2253.6  13017.60  2460.16  18.90
2256.1  12979.20  2408.96  18.56
2258.5  12980.99  2404.88  18.53
2260.9  12912.45  2367.48  18.33
2263.4  12850.74  2333.71  18.16
2265.8  12840.17  2338.77  18.21
2268.3  12768.77  2292.33  17.95
2270.7  12812.36  2262.06  17.66
2273.1  12778.22  2246.03  17.58
2275.6  12710.40  2229.76  17.54
2278.0  12729.12  2209.92  17.36
2280.4  12680.26  2217.92  17.49
2282.8  12544.20  2187.49  17.44
2285.3  12570.98  2146.36  17.07
2287.7  12679.54  2156.86  17.01
2290.1  12579.51  2128.21  16.92
2292.5  12520.09  2074.11  16.57
2294.9  12538.64  2050.92  16.36
2297.3  12458.25  2031.55  16.31
2299.7  12334.59  1982.06  16.07
2302.1  12311.40  1952.38  15.86
2304.5  12214.72  1909.04  15.63
2306.9  12089.28  1865.92  15.43
2309.3  11994.02  1863.82  15.54
2311.7  11939.85  1831.67  15.34
2314.1  11791.37  1798.50  15.25
2316.5  11721.50  1818.97  15.52
2318.9  11765.88  1832.87  15.58
2321.3  11730.50  1828.97  15.59
2323.7  11744.39  1856.90  15.81
2326.1  11719.24  1840.37  15.70
2328.4  11761.55  1809.05  15.38
2330.8  11807.83  1820.05  15.41
2333.2  11712.54  1802.46  15.39
2335.6  11662.03  1761.69  15.11
2337.9  11681.16  1766.71  15.12
2340.3  11629.38  1757.70  15.11
2342.7  11548.22  1706.77  14.78
2345.0  11508.47  1693.00  14.71
2347.4  11492.00  1670.25  14.53
2349.7  11315.65  1627.50  14.38
2352.1  11286.89  1633.86  14.48
2354.4  11296.02  1617.61  14.32
2356.8  11214.70  1621.63  14.46
2359.2  11154.00  1620.67  14.53
2361.5  11109.05  1576.62  14.19
2363.8  11141.66  1560.51  14.01
2366.2  11165.73  1574.09  14.10
2368.5  11089.40  1567.88  14.14
2370.9  11067.03  1541.81  13.93
2373.2  11030.32  1536.36  13.93
2375.5  10914.30  1509.85  13.83
2377.9  10876.18  1505.77  13.84
2380.2  10876.88  1493.62  13.73
2382.5  10821.23  1452.02  13.42
2384.8  10769.44  1439.95  13.37
2387.2  10736.28  1459.63  13.60
2389.5  10704.02  1438.54  13.44
2391.8  10661.73  1400.65  13.14
2394.1  10613.91  1410.71  13.29
2396.4  10610.47  1412.79  13.32
2398.7  10654.34  1388.42  13.03
2401.0  10513.07  1368.12  13.01
2403.3  10428.12  1349.58  12.94
2405.6  10456.51  1337.89  12.79
2407.9  10375.71  1336.00  12.88
2410.2  10317.44  1298.45  12.59
2412.5  10224.31  1272.11  12.44
2414.8  10187.84  1306.00  12.82
2417.1  10204.62  1302.46  12.76
2419.4  10195.97  1264.29  12.40
2421.7  10103.31  1266.86  12.54
2424.0  10048.90  1262.72  12.57
2426.2  10074.05  1223.37  12.14
2428.5  10032.46  1202.45  11.99
2430.8  10006.20  1209.90  12.09
2433.1  9945.94  1172.71  11.79
2435.4  9886.37  1184.28  11.98
2437.6  9830.42  1163.76  11.84
2439.9  9708.34  1104.29  11.37
2442.2  9709.99  1107.33  11.40
2444.4  9752.18  1125.70  11.54
2446.7  9688.56  1125.17  11.61
2448.9  9658.24  1111.30  11.51
2451.2  9631.36  1090.68  11.32
2453.4  9564.32  1046.63  10.94
2455.7  9566.46  1070.37  11.19
2457.9  9468.86  1068.38  11.28
2460.2  9395.46  1039.83  11.07
2462.4  9422.40  1046.24  11.10
2464.7  9348.95  1017.75  10.89
2466.9  9251.22  977.98  10.57
2469.2  9249.34  1019.78  11.03
2471.4  9151.61  976.00  10.66
2473.6  9078.42  939.54  10.35
2475.9  9042.40  1006.97  11.14
2478.1  8956.32  954.15  10.65
2480.3  8952.70  888.78  9.93
2482.5  8971.16  910.22  10.15
2484.8  8832.66  915.06  10.36
2487.0  8762.09  886.33  10.12
2489.2  8850.00  904.60  10.22
2491.4  8753.22  932.45  10.65
2493.6  8669.20  904.02  10.43
2495.8  8662.66  900.05  10.39
2498.0  8674.13  907.95  10.47
2500.2  8694.60  853.74  9.82
2502.4  8942.16  902.80  10.10
2504.6  9089.52  920.22  10.12
2506.8  9176.65  870.25  9.48
