/*** Spectra Vista SIG Data ***/
name= GB.sig
comm= Resampled spectral data SIG file reprocesed for matching/overlap;Averaged Ref/Tar of files: GB1,GB2,GB3
data=
346.0  468.20  174.11  37.19
356.0  683.10  200.44  29.34
366.0  906.09  223.54  24.67
376.0  1249.89  241.56  19.33
386.0  1571.27  244.61  15.57
396.0  2026.07  315.98  15.60
406.0  2502.77  328.86  13.14
416.0  3165.14  423.78  13.39
426.0  3668.56  475.76  12.97
436.0  4548.65  561.29  12.34
446.0  5417.72  700.81  12.94
456.0  6302.44  864.76  13.72
466.0  7615.04  1070.19  14.05
476.0  8743.20  1241.88  14.20
486.0  9533.40  1394.86  14.63
496.0  11257.81  1854.35  16.47
506.0  12699.26  2680.90  21.11
516.0  13281.41  3866.84  29.11
526.0  14721.08  5544.41  37.66
536.0  16749.01  7173.29  42.83
546.0  18621.46  8363.93  44.92
556.0  19066.94  8767.19  45.98
566.0  20585.57  9176.36  44.58
576.0  22670.38  9408.45  41.50
586.0  24106.47  9398.91  38.99
596.0  25247.53  9472.89  37.52
606.0  25711.34  9336.28  36.31
616.0  27649.38  9295.71  33.62
626.0  31025.14  9924.61  31.99
636.0  30881.13  9691.53  31.38
646.0  31238.37  8326.89  26.66
656.0  30360.38  6440.99  21.22
666.0  31764.82  5810.54  18.29
676.0  33416.99  5529.78  16.55
686.0  36086.51  7870.43  21.81
696.0  37161.40  15611.23  42.01
706.0  37800.45  23569.94  62.35
716.0  37597.62  28148.23  74.87
726.0  36909.99  30217.63  81.87
736.0  36510.50  30874.03  84.56
746.0  38642.98  33228.55  85.99
756.0  39260.04  34297.79  87.36
766.0  40452.13  35729.79  88.33
776.0  40956.88  36731.44  89.68
786.0  40712.49  37074.76  91.06
796.0  39541.78  36924.63  93.38
806.0  38183.08  36251.14  94.94
816.0  37991.58  36301.77  95.55
826.0  38001.34  36082.56  94.95
836.0  38898.28  36150.94  92.94
846.0  40272.93  36947.67  91.74
856.0  41435.70  37821.26  91.28
866.0  42009.41  38053.41  90.58
876.0  42227.12  37930.95  89.83
886.0  42357.46  37793.25  89.22
896.0  41812.69  37015.92  88.53
906.0  41556.83  36421.86  87.64
916.0  41043.62  35417.60  86.29
926.0  40765.22  34032.95  83.49
936.0  41670.71  32907.38  78.97
946.0  42483.47  31296.82  73.67
956.0  43315.05  29202.54  67.42
966.0  43997.52  28484.13  64.74
976.0  44695.21  28937.72  64.74
986.0  47191.67  28182.00  59.72
996.0  47061.19  29095.14  61.82
1006.0  46939.72  30102.94  64.13
1016.0  47337.20  31609.20  66.77
1026.0  47434.95  33030.90  69.63
1036.0  47300.39  34240.86  72.39
1046.0  47814.52  35719.94  74.71
1056.0  48169.66  36816.34  76.43
1066.0  48243.60  37308.32  77.33
1076.0  48081.60  37207.56  77.38
1086.0  48203.49  36899.00  76.55
1096.0  48223.42  36132.65  74.93
1106.0  48093.81  35067.64  72.92
1116.0  47754.46  33747.44  70.67
1126.0  47607.19  31891.99  66.99
1136.0  47567.70  28585.66  60.09
1146.0  47493.03  24850.48  52.32
1156.0  47323.93  22561.96  47.68
1166.0  47127.55  21700.79  46.05
1176.0  47007.28  21359.53  45.44
1186.0  47024.89  21140.56  44.96
1196.0  46427.12  20742.72  44.68
1206.0  45976.77  20580.66  44.76
1216.0  45638.29  20647.55  45.24
1226.0  45257.55  20823.83  46.01
1236.0  44986.64  20999.13  46.68
1246.0  44665.03  21108.77  47.26
1256.0  44348.18  21140.44  47.67
1266.0  44041.29  21015.64  47.72
1276.0  44122.33  20920.10  47.41
1286.0  44180.48  20585.45  46.59
1296.0  43940.70  19891.33  45.27
1306.0  43443.23  18813.25  43.31
1316.0  42852.87  17502.43  40.84
1326.0  42279.85  16069.80  38.01
1336.0  41687.98  14675.89  35.20
1346.0  41087.70  13427.44  32.68
1356.0  40136.77  12279.02  30.59
1366.0  39573.10  11332.83  28.64
1376.0  39448.29  10203.80  25.87
1386.0  39137.19  8646.43  22.09
1396.0  38705.17  7068.05  18.26
1406.0  38283.65  5975.49  15.61
1416.0  38247.12  5382.24  14.07
1426.0  38141.65  5084.47  13.33
1436.0  37993.55  4946.88  13.02
1446.0  37807.56  4875.30  12.90
1456.0  37564.66  4846.42  12.90
1466.0  37374.67  4884.00  13.07
1476.0  37032.66  4996.80  13.49
1486.0  36783.36  5217.04  14.18
1496.0  36446.95  5494.56  15.08
1506.0  36128.16  5678.59  15.72
1516.0  35703.58  5796.84  16.24
1526.0  35355.47  5898.53  16.68
1536.0  35069.58  6080.29  17.34
1546.0  34708.16  6212.59  17.90
1556.0  34457.36  6393.16  18.55
1566.0  34164.86  6602.71  19.33
1576.0  33714.29  6778.86  20.11
1586.0  33359.51  6890.10  20.65
1596.0  32961.11  6953.95  21.10
1606.0  32571.18  7024.29  21.57
1616.0  32156.21  7073.93  22.00
1626.0  31771.93  7129.34  22.44
1636.0  31326.06  7139.82  22.79
1646.0  30840.36  7133.45  23.13
1656.0  30342.57  7087.18  23.36
1666.0  29873.41  7011.37  23.47
1676.0  29453.55  6898.99  23.42
1686.0  29411.45  6803.32  23.13
1696.0  29052.01  6622.93  22.80
1706.0  28613.36  6381.98  22.30
1716.0  27944.47  6069.00  21.72
1726.0  27523.58  5806.84  21.10
1736.0  27167.55  5657.76  20.83
1746.0  26819.99  5500.84  20.51
1756.0  26352.17  5269.59  20.00
1766.0  25950.76  5087.79  19.61
1776.0  25733.96  4979.36  19.35
1786.0  25468.85  4864.35  19.10
1796.0  25144.26  4765.70  18.95
1806.0  24846.88  4700.42  18.92
1816.0  24492.53  4616.53  18.85
1826.0  24049.65  4511.84  18.76
1836.0  23447.37  4352.04  18.56
1846.0  23057.19  4191.03  18.18
1856.0  22644.78  3970.47  17.53
1866.0  22558.57  3702.18  16.41
1876.0  22322.63  3215.62  14.41
1886.0  22034.63  2713.11  12.31
1896.0  21514.98  2364.90  10.99
1906.0  20193.02  1325.79  6.57
1916.0  19960.67  1292.30  6.47
1926.0  19718.96  1280.41  6.49
1936.0  19579.29  1286.13  6.57
1946.0  19560.97  1312.53  6.71
1956.0  19388.55  1338.95  6.91
1966.0  19354.23  1379.77  7.13
1976.0  19201.04  1415.04  7.37
1986.0  18944.59  1446.60  7.64
1996.0  18673.01  1475.53  7.90
2006.0  18514.12  1522.19  8.22
2016.0  18215.64  1557.14  8.55
2026.0  17909.22  1569.81  8.77
2036.0  17652.06  1599.20  9.06
2046.0  17374.82  1604.03  9.23
2056.0  17064.26  1607.43  9.42
2066.0  16791.57  1607.79  9.58
2076.0  16545.25  1636.19  9.89
2086.0  16394.52  1655.26  10.10
2096.0  16100.21  1672.32  10.39
2106.0  15806.06  1672.57  10.58
2116.0  15736.14  1696.58  10.78
2126.0  15554.85  1707.29  10.98
2136.0  15258.51  1702.40  11.16
2146.0  14853.45  1695.46  11.41
2156.0  14604.38  1691.17  11.58
2166.0  14366.07  1678.46  11.68
2176.0  14128.44  1669.15  11.81
2186.0  13980.19  1668.41  11.93
2196.0  13852.76  1644.39  11.87
2206.0  13790.00  1655.94  12.01
2216.0  13655.61  1639.41  12.01
2226.0  13540.23  1606.39  11.86
2236.0  13404.39  1574.59  11.75
2246.0  13162.51  1488.53  11.31
2256.0  12980.74  1432.68  11.04
2266.0  12834.46  1380.65  10.76
2276.0  12713.52  1324.99  10.42
2286.0  12602.64  1264.75  10.04
2296.0  12501.79  1232.02  9.85
2306.0  12136.32  1124.06  9.26
2316.0  11736.06  1102.56  9.39
2326.0  11720.29  1120.03  9.56
2336.0  11665.36  1063.61  9.12
2346.0  11501.61  1027.08  8.93
2356.0  11241.81  992.84  8.83
2366.0  11163.72  981.44  8.79
2376.0  10906.36  925.50  8.49
2386.0  10752.86  897.01  8.34
2396.0  10611.07  874.04  8.24
2406.0  10442.46  832.75  7.97
2416.0  10196.59  809.78  7.94
2426.0  10071.76  778.23  7.73
2436.0  9871.11  763.81  7.74
2446.0  9707.92  691.10  7.12
2456.0  9553.15  699.20  7.32
2466.0  9291.20  652.36  7.02
2476.0  9038.48  631.91  6.99
2486.0  8794.17  603.68  6.86
2496.0  8663.70  635.52  7.34
2506.0  9144.96  585.63  6.40
