/*** Spectra Vista SIG Data ***/
name= GB.sig
comm= Resampled spectral data SIG file reprocesed for matching/overlap;Averaged Ref/Tar of files: GB1,GB2,GB3
data=
346.0  468.20  171.99  36.73
356.0  683.10  197.07  28.85
366.0  906.09  226.76  25.03
376.0  1249.89  252.25  20.18
386.0  1571.27  255.89  16.29
396.0  2026.07  329.19  16.25
406.0  2502.77  344.51  13.77
416.0  3165.14  439.90  13.90
426.0  3668.56  501.30  13.66
436.0  4548.65  592.89  13.03
446.0  5417.72  744.24  13.74
456.0  6302.44  924.13  14.66
466.0  7615.04  1141.58  14.99
476.0  8743.20  1330.82  15.22
486.0  9533.40  1500.59  15.74
496.0  11257.81  1998.06  17.75
506.0  12699.26  2882.46  22.70
516.0  13281.41  4135.99  31.14
526.0  14721.08  5859.43  39.80
536.0  16749.01  7533.11  44.98
546.0  18621.46  8808.37  47.30
556.0  19066.94  9219.96  48.36
566.0  20585.57  9656.39  46.91
576.0  22670.38  9884.71  43.60
586.0  24106.47  9857.15  40.89
596.0  25247.53  9976.13  39.51
606.0  25711.34  9846.06  38.29
616.0  27649.38  9803.64  35.46
626.0  31025.14  10596.87  34.16
636.0  30881.13  10321.69  33.42
646.0  31238.37  8755.04  28.03
656.0  30360.38  7013.09  23.10
666.0  31764.82  6229.86  19.61
676.0  33416.99  5935.99  17.76
686.0  36086.51  8439.77  23.39
696.0  37161.40  16460.66  44.30
706.0  37800.45  24551.15  64.95
716.0  37597.62  29203.04  77.67
726.0  36909.99  31396.66  85.06
736.0  36510.50  32124.80  87.99
746.0  38642.98  34539.84  89.38
756.0  39260.04  35754.04  91.07
766.0  40452.13  37128.09  91.78
776.0  40956.88  38073.93  92.96
786.0  40712.49  38292.04  94.05
796.0  39541.78  38092.70  96.34
806.0  38183.08  37311.63  97.72
816.0  37991.58  37358.54  98.33
826.0  38001.34  37212.34  97.92
836.0  38898.28  37381.29  96.10
846.0  40272.93  38300.37  95.10
856.0  41435.70  39263.85  94.76
866.0  42009.41  39546.73  94.14
876.0  42227.12  39471.31  93.47
886.0  42357.46  39339.58  92.88
896.0  41812.69  38513.38  92.11
906.0  41556.83  37916.40  91.24
916.0  41043.62  36861.70  89.81
926.0  40765.22  35432.83  86.92
936.0  41670.71  34287.33  82.28
946.0  42483.47  32720.95  77.02
956.0  43315.05  30622.26  70.70
966.0  43997.52  29901.25  67.96
976.0  44695.21  30479.38  68.19
986.0  47191.67  29269.76  62.02
996.0  47061.19  30010.78  63.77
1006.0  46939.72  30951.00  65.94
1016.0  47337.20  32483.63  68.62
1026.0  47434.95  33904.12  71.47
1036.0  47300.39  35158.93  74.33
1046.0  47814.52  36669.29  76.69
1056.0  48169.66  37781.64  78.43
1066.0  48243.60  38296.88  79.38
1076.0  48081.60  38212.18  79.47
1086.0  48203.49  37904.82  78.64
1096.0  48223.42  37133.74  77.00
1106.0  48093.81  36078.44  75.02
1116.0  47754.46  34747.94  72.76
1126.0  47607.19  32845.02  68.99
1136.0  47567.70  29476.19  61.97
1146.0  47493.03  25679.79  54.07
1156.0  47323.93  23379.93  49.40
1166.0  47127.55  22516.15  47.78
1176.0  47007.28  22163.59  47.15
1186.0  47024.89  21926.18  46.63
1196.0  46427.12  21509.87  46.33
1206.0  45976.77  21341.27  46.42
1216.0  45638.29  21410.77  46.91
1226.0  45257.55  21557.21  47.63
1236.0  44986.64  21754.01  48.36
1246.0  44665.03  21846.51  48.91
1256.0  44348.18  21875.64  49.33
1266.0  44041.29  21734.31  49.35
1276.0  44122.33  21637.02  49.04
1286.0  44180.48  21298.22  48.21
1296.0  43940.70  20572.06  46.82
1306.0  43443.23  19476.12  44.83
1316.0  42852.87  18132.36  42.31
1326.0  42279.85  16660.21  39.40
1336.0  41687.98  15246.93  36.57
1346.0  41087.70  13951.89  33.96
1356.0  40136.77  12774.19  31.83
1366.0  39573.10  11804.94  29.83
1376.0  39448.29  10622.73  26.93
1386.0  39137.19  8982.90  22.95
1396.0  38705.17  7327.97  18.93
1406.0  38283.65  6176.72  16.13
1416.0  38247.12  5556.58  14.53
1426.0  38141.65  5252.15  13.77
1436.0  37993.55  5103.97  13.43
1446.0  37807.56  5033.88  13.31
1456.0  37564.66  5004.60  13.32
1466.0  37374.67  5048.76  13.51
1476.0  37032.66  5169.91  13.96
1486.0  36783.36  5412.96  14.72
1496.0  36446.95  5704.68  15.65
1506.0  36128.16  5884.71  16.29
1516.0  35703.58  6003.21  16.81
1526.0  35355.47  6146.15  17.38
1536.0  35069.58  6327.90  18.04
1546.0  34708.16  6495.56  18.71
1556.0  34457.36  6718.26  19.50
1566.0  34164.86  6893.00  20.18
1576.0  33714.29  7089.91  21.03
1586.0  33359.51  7203.97  21.59
1596.0  32961.11  7275.74  22.07
1606.0  32571.18  7348.88  22.56
1616.0  32156.21  7408.48  23.04
1626.0  31771.93  7459.81  23.48
1636.0  31326.06  7478.06  23.87
1646.0  30840.36  7466.18  24.21
1656.0  30342.57  7408.55  24.42
1666.0  29873.41  7335.42  24.56
1676.0  29453.55  7224.01  24.53
1686.0  29411.45  7138.27  24.27
1696.0  29052.01  6943.02  23.90
1706.0  28613.36  6696.03  23.40
1716.0  27944.47  6367.16  22.79
1726.0  27523.58  6090.75  22.13
1736.0  27167.55  5936.81  21.85
1746.0  26819.99  5769.33  21.51
1756.0  26352.17  5520.51  20.95
1766.0  25950.76  5328.67  20.53
1776.0  25733.96  5218.24  20.28
1786.0  25468.85  5096.50  20.01
1796.0  25144.26  4997.30  19.87
1806.0  24846.88  4926.24  19.83
1816.0  24492.53  4834.46  19.74
1826.0  24049.65  4732.60  19.68
1836.0  23447.37  4559.66  19.45
1846.0  23057.19  4399.64  19.08
1856.0  22644.78  4152.04  18.34
1866.0  22558.57  3840.73  17.03
1876.0  22322.63  3321.84  14.88
1886.0  22034.63  2790.75  12.67
1896.0  21514.98  2432.11  11.30
1906.0  20193.02  1246.94  6.18
1916.0  19960.67  1218.16  6.10
1926.0  19718.96  1201.61  6.09
1936.0  19579.29  1207.23  6.17
1946.0  19560.97  1222.24  6.25
1956.0  19388.55  1258.36  6.49
1966.0  19354.23  1300.75  6.72
1976.0  19201.04  1336.75  6.96
1986.0  18944.59  1364.55  7.20
1996.0  18673.01  1408.14  7.54
2006.0  18514.12  1456.19  7.87
2016.0  18215.64  1480.74  8.13
2026.0  17909.22  1510.69  8.44
2036.0  17652.06  1537.95  8.71
2046.0  17374.82  1554.80  8.95
2056.0  17064.26  1558.98  9.14
2066.0  16791.57  1569.51  9.35
2076.0  16545.25  1586.12  9.59
2086.0  16394.52  1609.89  9.82
2096.0  16100.21  1618.22  10.05
2106.0  15806.06  1640.86  10.38
2116.0  15736.14  1673.90  10.64
2126.0  15554.85  1698.81  10.92
2136.0  15258.51  1700.09  11.14
2146.0  14853.45  1695.03  11.41
2156.0  14604.38  1680.04  11.50
2166.0  14366.07  1667.23  11.61
2176.0  14128.44  1647.63  11.66
2186.0  13980.19  1656.88  11.85
2196.0  13852.76  1654.51  11.94
2206.0  13790.00  1656.66  12.01
2216.0  13655.61  1635.05  11.97
2226.0  13540.23  1592.18  11.76
2236.0  13404.39  1562.75  11.66
2246.0  13162.51  1500.17  11.40
2256.0  12980.74  1426.74  10.99
2266.0  12834.46  1368.94  10.67
2276.0  12713.52  1318.38  10.37
2286.0  12602.64  1278.17  10.14
2296.0  12501.79  1218.29  9.74
2306.0  12136.32  1122.92  9.25
2316.0  11736.06  1095.55  9.33
2326.0  11720.29  1097.14  9.36
2336.0  11665.36  1056.91  9.06
2346.0  11501.61  1025.43  8.92
2356.0  11241.81  967.95  8.61
2366.0  11163.72  959.77  8.60
2376.0  10906.36  949.13  8.70
2386.0  10752.86  878.36  8.17
2396.0  10611.07  841.55  7.93
2406.0  10442.46  820.29  7.86
2416.0  10196.59  817.12  8.01
2426.0  10071.76  753.02  7.48
2436.0  9871.11  722.94  7.32
2446.0  9707.92  694.61  7.16
2456.0  9553.15  691.63  7.24
2466.0  9291.20  640.82  6.90
2476.0  9038.48  605.40  6.70
2486.0  8794.17  590.06  6.71
2496.0  8663.70  543.37  6.27
2506.0  9144.96  571.17  6.25
