/*** Spectra Vista SIG Data ***/
name= GS.sig
comm= Resampled spectral data SIG file reprocesed for matching/overlap;Averaged Ref/Tar of files: GS1,GS2,GS3
data=
346.0  468.20  191.63  40.93
356.0  683.10  230.37  33.72
366.0  906.09  259.73  28.67
376.0  1249.89  294.02  23.52
386.0  1571.27  322.65  20.53
396.0  2026.07  437.90  21.61
406.0  2502.77  484.08  19.34
416.0  3165.14  605.98  19.15
426.0  3668.56  669.58  18.25
436.0  4548.65  789.37  17.35
446.0  5417.72  1010.11  18.64
456.0  6302.44  1290.04  20.47
466.0  7615.04  1590.55  20.89
476.0  8743.20  1848.30  21.14
486.0  9533.40  2118.45  22.22
496.0  11257.81  2885.99  25.64
506.0  12699.26  4211.11  33.16
516.0  13281.41  5843.04  43.99
526.0  14721.08  7963.49  54.10
536.0  16749.01  10001.24  59.71
546.0  18621.46  11552.31  62.04
556.0  19066.94  11951.33  62.68
566.0  20585.57  12613.95  61.28
576.0  22670.38  13171.89  58.10
586.0  24106.47  13381.07  55.51
596.0  25247.53  13599.16  53.86
606.0  25711.34  13444.73  52.29
616.0  27649.38  13531.45  48.94
626.0  31025.14  13659.94  44.03
636.0  30881.13  13649.44  44.20
646.0  31238.37  12500.29  40.02
656.0  30360.38  10658.41  35.11
666.0  31764.82  8853.71  27.87
676.0  33416.99  8316.94  24.89
686.0  36086.51  12138.89  33.64
696.0  37161.40  22145.01  59.59
706.0  37800.45  29977.11  79.30
716.0  37597.62  33339.43  88.67
726.0  36909.99  34226.93  92.73
736.0  36510.50  34230.15  93.75
746.0  38642.98  36668.11  94.89
756.0  39260.04  37347.53  95.13
766.0  40452.13  39072.59  96.59
776.0  40956.88  40034.54  97.75
786.0  40712.49  40379.35  99.18
796.0  39541.78  39364.94  99.55
806.0  38183.08  38351.00  100.44
816.0  37991.58  38338.52  100.91
826.0  38001.34  37854.98  99.61
836.0  38898.28  38047.38  97.81
846.0  40272.93  39149.17  97.21
856.0  41435.70  39760.29  95.96
866.0  42009.41  40002.50  95.22
876.0  42227.12  39845.73  94.36
886.0  42357.46  39417.96  93.06
896.0  41812.69  38456.78  91.97
906.0  41556.83  37848.01  91.08
916.0  41043.62  36853.53  89.79
926.0  40765.22  35517.57  87.13
936.0  41670.71  34642.68  83.13
946.0  42483.47  33428.35  78.69
956.0  43315.05  31730.87  73.26
966.0  43997.52  31228.65  70.98
976.0  44695.21  31204.73  69.82
986.0  47191.67  31105.41  65.91
996.0  47061.19  31677.98  67.31
1006.0  46939.72  32413.72  69.05
1016.0  47337.20  33686.98  71.16
1026.0  47434.95  34721.30  73.20
1036.0  47300.39  35566.83  75.19
1046.0  47814.52  36835.04  77.04
1056.0  48169.66  37786.17  78.44
1066.0  48243.60  38171.93  79.12
1076.0  48081.60  38074.25  79.19
1086.0  48203.49  37793.11  78.40
1096.0  48223.42  37169.09  77.08
1106.0  48093.81  36339.29  75.56
1116.0  47754.46  35193.34  73.70
1126.0  47607.19  33548.53  70.47
1136.0  47567.70  30670.03  64.48
1146.0  47493.03  27389.33  57.67
1156.0  47323.93  25452.55  53.78
1166.0  47127.55  24733.20  52.48
1176.0  47007.28  24427.69  51.97
1186.0  47024.89  24220.27  51.51
1196.0  46427.12  23792.78  51.25
1206.0  45976.77  23618.63  51.37
1216.0  45638.29  23658.98  51.84
1226.0  45257.55  23786.37  52.56
1236.0  44986.64  23940.25  53.22
1246.0  44665.03  24014.27  53.77
1256.0  44348.18  24005.28  54.13
1266.0  44041.29  23892.55  54.25
1276.0  44122.33  23783.83  53.90
1286.0  44180.48  23451.32  53.08
1296.0  43940.70  22746.52  51.77
1306.0  43443.23  21653.90  49.84
1316.0  42852.87  20320.97  47.42
1326.0  42279.85  18815.48  44.50
1336.0  41687.98  17307.38  41.52
1346.0  41087.70  15962.69  38.85
1356.0  40136.77  14631.43  36.45
1366.0  39573.10  13515.78  34.15
1376.0  39448.29  12211.29  30.96
1386.0  39137.19  10151.43  25.94
1396.0  38705.17  8098.89  20.92
1406.0  38283.65  6663.55  17.41
1416.0  38247.12  5911.81  15.46
1426.0  38141.65  5542.44  14.53
1436.0  37993.55  5361.16  14.11
1446.0  37807.56  5284.84  13.98
1456.0  37564.66  5252.96  13.98
1466.0  37374.67  5329.96  14.26
1476.0  37032.66  5506.10  14.87
1486.0  36783.36  5818.60  15.82
1496.0  36446.95  6192.46  16.99
1506.0  36128.16  6415.34  17.76
1516.0  35703.58  6618.18  18.54
1526.0  35355.47  6881.88  19.46
1536.0  35069.58  7182.48  20.48
1546.0  34708.16  7460.16  21.49
1556.0  34457.36  7704.56  22.36
1566.0  34164.86  7946.77  23.26
1576.0  33714.29  8170.83  24.24
1586.0  33359.51  8327.70  24.96
1596.0  32961.11  8430.18  25.58
1606.0  32571.18  8530.16  26.19
1616.0  32156.21  8618.40  26.80
1626.0  31771.93  8689.27  27.35
1636.0  31326.06  8715.40  27.82
1646.0  30840.36  8662.58  28.09
1656.0  30342.57  8552.71  28.19
1666.0  29873.41  8442.25  28.26
1676.0  29453.55  8308.19  28.21
1686.0  29411.45  8224.13  27.96
1696.0  29052.01  8024.73  27.62
1706.0  28613.36  7755.80  27.11
1716.0  27944.47  7400.14  26.48
1726.0  27523.58  7111.06  25.84
1736.0  27167.55  6905.28  25.42
1746.0  26819.99  6689.45  24.94
1756.0  26352.17  6384.82  24.23
1766.0  25950.76  6137.29  23.65
1776.0  25733.96  6001.41  23.32
1786.0  25468.85  5873.41  23.06
1796.0  25144.26  5760.15  22.91
1806.0  24846.88  5687.00  22.89
1816.0  24492.53  5596.71  22.85
1826.0  24049.65  5475.61  22.77
1836.0  23447.37  5289.84  22.56
1846.0  23057.19  5180.24  22.47
1856.0  22644.78  5033.86  22.23
1866.0  22558.57  4438.01  19.67
1876.0  22322.63  3501.30  15.68
1886.0  22034.63  2798.94  12.70
1896.0  21514.98  2372.31  11.03
1906.0  20193.02  1327.37  6.57
1916.0  19960.67  1224.82  6.14
1926.0  19718.96  1196.85  6.07
1936.0  19579.29  1189.70  6.08
1946.0  19560.97  1207.97  6.18
1956.0  19388.55  1267.12  6.54
1966.0  19354.23  1328.83  6.87
1976.0  19201.04  1398.38  7.28
1986.0  18944.59  1431.62  7.56
1996.0  18673.01  1512.68  8.10
2006.0  18514.12  1577.13  8.52
2016.0  18215.64  1626.38  8.93
2026.0  17909.22  1685.94  9.41
2036.0  17652.06  1717.87  9.73
2046.0  17374.82  1775.50  10.22
2056.0  17064.26  1795.73  10.52
2066.0  16791.57  1825.99  10.87
2076.0  16545.25  1878.18  11.35
2086.0  16394.52  1914.70  11.68
2096.0  16100.21  1942.43  12.06
2106.0  15806.06  1972.41  12.48
2116.0  15736.14  2023.84  12.86
2126.0  15554.85  2049.80  13.18
2136.0  15258.51  2041.89  13.38
2146.0  14853.45  2046.93  13.78
2156.0  14604.38  2036.45  13.94
2166.0  14366.07  2021.63  14.07
2176.0  14128.44  2018.41  14.29
2186.0  13980.19  1988.30  14.22
2196.0  13852.76  2007.17  14.49
2206.0  13790.00  2004.21  14.53
2216.0  13655.61  2000.27  14.65
2226.0  13540.23  1933.46  14.28
2236.0  13404.39  1868.46  13.94
2246.0  13162.51  1806.05  13.72
2256.0  12980.74  1725.60  13.29
2266.0  12834.46  1631.40  12.71
2276.0  12713.52  1569.72  12.35
2286.0  12602.64  1507.43  11.96
2296.0  12501.79  1433.19  11.46
2306.0  12136.32  1308.95  10.79
2316.0  11736.06  1258.50  10.72
2326.0  11720.29  1263.47  10.78
2336.0  11665.36  1192.43  10.22
2346.0  11501.61  1162.31  10.11
2356.0  11241.81  1102.05  9.80
2366.0  11163.72  1060.85  9.50
2376.0  10906.36  1022.74  9.38
2386.0  10752.86  965.50  8.98
2396.0  10611.07  938.68  8.85
2406.0  10442.46  902.16  8.64
2416.0  10196.59  840.68  8.24
2426.0  10071.76  797.99  7.92
2436.0  9871.11  793.99  8.04
2446.0  9707.92  704.65  7.26
2456.0  9553.15  698.29  7.31
2466.0  9291.20  648.97  6.98
2476.0  9038.48  637.44  7.05
2486.0  8794.17  561.17  6.38
2496.0  8663.70  564.59  6.52
2506.0  9144.96  543.55  5.94
