/*** Spectra Vista SIG Data ***/
name= GS.sig
comm= Resampled spectral data SIG file reprocesed for matching/overlap;Averaged Ref/Tar of files: GS1,GS2,GS3
data=
346.0  468.20  212.34  45.35
356.0  683.10  237.90  34.83
366.0  906.09  262.83  29.01
376.0  1249.89  284.48  22.76
386.0  1571.27  281.24  17.90
396.0  2026.07  362.02  17.87
406.0  2502.77  373.22  14.91
416.0  3165.14  488.05  15.42
426.0  3668.56  574.11  15.65
436.0  4548.65  693.42  15.24
446.0  5417.72  900.33  16.62
456.0  6302.44  1138.40  18.06
466.0  7615.04  1403.90  18.44
476.0  8743.20  1634.97  18.70
486.0  9533.40  1863.44  19.55
496.0  11257.81  2508.08  22.28
506.0  12699.26  3693.02  29.08
516.0  13281.41  5357.01  40.33
526.0  14721.08  7675.56  52.14
536.0  16749.01  9861.99  58.88
546.0  18621.46  11458.10  61.53
556.0  19066.94  11863.79  62.22
566.0  20585.57  12324.15  59.87
576.0  22670.38  12490.41  55.10
586.0  24106.47  12344.99  51.21
596.0  25247.53  12333.52  48.85
606.0  25711.34  12051.61  46.87
616.0  27649.38  11893.32  43.01
626.0  31025.14  12062.51  38.88
636.0  30881.13  11709.28  37.92
646.0  31238.37  10724.77  34.33
656.0  30360.38  9016.26  29.70
666.0  31764.82  7284.07  22.93
676.0  33416.99  6835.11  20.45
686.0  36086.51  10008.49  27.73
696.0  37161.40  19967.83  53.73
706.0  37800.45  29926.43  79.17
716.0  37597.62  35355.30  94.04
726.0  36909.99  37654.29  102.02
736.0  36510.50  38413.31  105.21
746.0  38642.98  41438.29  107.23
756.0  39260.04  42360.53  107.90
766.0  40452.13  44210.13  109.29
776.0  40956.88  45148.62  110.23
786.0  40712.49  45398.50  111.51
796.0  39541.78  44162.31  111.69
806.0  38183.08  42926.70  112.42
816.0  37991.58  42879.52  112.87
826.0  38001.34  42442.07  111.69
836.0  38898.28  42753.28  109.91
846.0  40272.93  44094.18  109.49
856.0  41435.70  44866.94  108.28
866.0  42009.41  45172.93  107.53
876.0  42227.12  45049.07  106.68
886.0  42357.46  44562.19  105.21
896.0  41812.69  43479.94  103.99
906.0  41556.83  42773.66  102.93
916.0  41043.62  41612.69  101.39
926.0  40765.22  40167.50  98.53
936.0  41670.71  39234.59  94.15
946.0  42483.47  37969.05  89.37
956.0  43315.05  36134.29  83.42
966.0  43997.52  35615.87  80.95
976.0  44695.21  35743.83  79.97
986.0  47191.67  36387.19  77.11
996.0  47061.19  37024.39  78.67
1006.0  46939.72  37762.46  80.45
1016.0  47337.20  39163.58  82.73
1026.0  47434.95  40302.57  84.96
1036.0  47300.39  41221.84  87.15
1046.0  47814.52  42640.44  89.18
1056.0  48169.66  43716.42  90.76
1066.0  48243.60  44166.00  91.55
1076.0  48081.60  44075.98  91.67
1086.0  48203.49  43820.82  90.91
1096.0  48223.42  43174.60  89.53
1106.0  48093.81  42288.13  87.93
1116.0  47754.46  41056.26  85.97
1126.0  47607.19  39314.71  82.58
1136.0  47567.70  36259.52  76.23
1146.0  47493.03  32707.10  68.87
1156.0  47323.93  30567.21  64.59
1166.0  47127.55  29749.42  63.13
1176.0  47007.28  29381.84  62.50
1186.0  47024.89  29141.98  61.97
1196.0  46427.12  28593.64  61.59
1206.0  45976.77  28354.43  61.67
1216.0  45638.29  28377.80  62.18
1226.0  45257.55  28485.58  62.94
1236.0  44986.64  28643.06  63.67
1246.0  44665.03  28688.35  64.23
1256.0  44348.18  28656.10  64.62
1266.0  44041.29  28503.86  64.72
1276.0  44122.33  28399.26  64.36
1286.0  44180.48  28049.24  63.49
1296.0  43940.70  27281.05  62.09
1306.0  43443.23  26051.52  59.97
1316.0  42852.87  24583.07  57.37
1326.0  42279.85  22920.79  54.21
1336.0  41687.98  21255.82  50.99
1346.0  41087.70  19726.05  48.01
1356.0  40136.77  18215.46  45.38
1366.0  39573.10  16947.44  42.83
1376.0  39448.29  15441.42  39.14
1386.0  39137.19  13063.11  33.38
1396.0  38705.17  10634.84  27.48
1406.0  38283.65  8885.70  23.21
1416.0  38247.12  7981.73  20.87
1426.0  38141.65  7523.82  19.73
1436.0  37993.55  7297.81  19.21
1446.0  37807.56  7194.29  19.03
1456.0  37564.66  7159.62  19.06
1466.0  37374.67  7247.00  19.39
1476.0  37032.66  7450.98  20.12
1486.0  36783.36  7821.12  21.26
1496.0  36446.95  8254.16  22.65
1506.0  36128.16  8473.34  23.45
1516.0  35703.58  8511.77  23.84
1526.0  35355.47  9034.31  25.55
1536.0  35069.58  9407.09  26.82
1546.0  34708.16  9726.20  28.02
1556.0  34457.36  10021.14  29.08
1566.0  34164.86  10267.42  30.05
1576.0  33714.29  10512.32  31.18
1586.0  33359.51  10684.56  32.03
1596.0  32961.11  10794.88  32.75
1606.0  32571.18  10890.38  33.44
1616.0  32156.21  10979.65  34.14
1626.0  31771.93  11050.32  34.78
1636.0  31326.06  11068.13  35.33
1646.0  30840.36  10980.61  35.60
1656.0  30342.57  10837.77  35.72
1666.0  29873.41  10687.69  35.78
1676.0  29453.55  10522.44  35.73
1686.0  29411.45  10421.24  35.43
1696.0  29052.01  10172.05  35.01
1706.0  28613.36  9825.29  34.34
1716.0  27944.47  9383.28  33.58
1726.0  27523.58  9025.70  32.79
1736.0  27167.55  8796.62  32.38
1746.0  26819.99  8532.98  31.82
1756.0  26352.17  8162.20  30.97
1766.0  25950.76  7865.24  30.31
1776.0  25733.96  7706.94  29.95
1786.0  25468.85  7547.86  29.64
1796.0  25144.26  7415.45  29.49
1806.0  24846.88  7331.39  29.51
1816.0  24492.53  7221.99  29.49
1826.0  24049.65  7073.32  29.41
1836.0  23447.37  6844.74  29.19
1846.0  23057.19  6712.18  29.11
1856.0  22644.78  6491.89  28.67
1866.0  22558.57  5751.16  25.49
1876.0  22322.63  4654.30  20.85
1886.0  22034.63  3796.65  17.23
1896.0  21514.98  3290.37  15.29
1906.0  20193.02  2132.47  10.56
1916.0  19960.67  2009.41  10.07
1926.0  19718.96  1947.02  9.87
1936.0  19579.29  1941.20  9.91
1946.0  19560.97  1981.62  10.13
1956.0  19388.55  2022.28  10.43
1966.0  19354.23  2116.82  10.94
1976.0  19201.04  2180.27  11.35
1986.0  18944.59  2232.95  11.79
1996.0  18673.01  2322.48  12.44
2006.0  18514.12  2400.71  12.97
2016.0  18215.64  2461.98  13.52
2026.0  17909.22  2513.63  14.04
2036.0  17652.06  2562.80  14.52
2046.0  17374.82  2610.63  15.03
2056.0  17064.26  2644.32  15.50
2066.0  16791.57  2677.35  15.94
2076.0  16545.25  2715.77  16.41
2086.0  16394.52  2765.26  16.87
2096.0  16100.21  2794.07  17.35
2106.0  15806.06  2809.83  17.78
2116.0  15736.14  2870.24  18.24
2126.0  15554.85  2900.68  18.65
2136.0  15258.51  2902.91  19.02
2146.0  14853.45  2887.96  19.44
2156.0  14604.38  2880.45  19.72
2166.0  14366.07  2849.13  19.83
2176.0  14128.44  2824.90  19.99
2186.0  13980.19  2811.23  20.11
2196.0  13852.76  2790.77  20.15
2206.0  13790.00  2798.44  20.29
2216.0  13655.61  2767.95  20.27
2226.0  13540.23  2696.68  19.92
2236.0  13404.39  2642.62  19.71
2246.0  13162.51  2523.61  19.17
2256.0  12980.74  2411.01  18.57
2266.0  12834.46  2335.06  18.19
2276.0  12713.52  2226.45  17.51
2286.0  12602.64  2149.42  17.06
2296.0  12501.79  2042.04  16.33
2306.0  12136.32  1882.09  15.51
2316.0  11736.06  1814.71  15.46
2326.0  11720.29  1841.06  15.71
2336.0  11665.36  1762.56  15.11
2346.0  11501.61  1683.52  14.64
2356.0  11241.81  1620.29  14.41
2366.0  11163.72  1572.96  14.09
2376.0  10906.36  1509.00  13.84
2386.0  10752.86  1449.79  13.48
2396.0  10611.07  1412.43  13.31
2406.0  10442.46  1337.56  12.81
2416.0  10196.59  1304.15  12.79
2426.0  10071.76  1226.95  12.18
2436.0  9871.11  1178.68  11.94
2446.0  9707.92  1125.33  11.59
2456.0  9553.15  1070.10  11.20
2466.0  9291.20  994.25  10.70
2476.0  9038.48  1004.57  11.11
2486.0  8794.17  899.39  10.23
2496.0  8663.70  900.77  10.40
2506.0  9144.96  888.42  9.71
