/*** Spectra Vista SIG Data ***/
name= GS.sig
comm= Resampled spectral data SIG file reprocesed for matching/overlap;Averaged Ref/Tar of files: GS1,GS2,GS3
data=
346.0  468.20  155.64  33.24
356.0  683.10  185.63  27.17
366.0  906.09  195.42  21.57
376.0  1249.89  215.64  17.25
386.0  1571.27  212.04  13.50
396.0  2026.07  287.21  14.18
406.0  2502.77  300.94  12.02
416.0  3165.14  384.53  12.15
426.0  3668.56  430.76  11.74
436.0  4548.65  503.39  11.07
446.0  5417.72  633.69  11.70
456.0  6302.44  787.48  12.49
466.0  7615.04  968.85  12.72
476.0  8743.20  1127.73  12.90
486.0  9533.40  1270.88  13.33
496.0  11257.81  1697.70  15.08
506.0  12699.26  2460.99  19.38
516.0  13281.41  3493.82  26.31
526.0  14721.08  4931.33  33.50
536.0  16749.01  6314.40  37.70
546.0  18621.46  7352.50  39.48
556.0  19066.94  7636.52  40.05
566.0  20585.57  7965.38  38.69
576.0  22670.38  8130.05  35.86
586.0  24106.47  8107.29  33.63
596.0  25247.53  8154.63  32.30
606.0  25711.34  8001.39  31.12
616.0  27649.38  7942.60  28.73
626.0  31025.14  8194.65  26.41
636.0  30881.13  7842.99  25.40
646.0  31238.37  7107.63  22.75
656.0  30360.38  6082.71  20.04
666.0  31764.82  5009.24  15.77
676.0  33416.99  4797.01  14.36
686.0  36086.51  7048.45  19.53
696.0  37161.40  13929.00  37.48
706.0  37800.45  21070.34  55.74
716.0  37597.62  25292.09  67.27
726.0  36909.99  27378.96  74.18
736.0  36510.50  28394.87  77.77
746.0  38642.98  30998.93  80.22
756.0  39260.04  31948.50  81.38
766.0  40452.13  33648.11  83.18
776.0  40956.88  34601.67  84.48
786.0  40712.49  35008.69  85.99
796.0  39541.78  34191.52  86.47
806.0  38183.08  33409.53  87.50
816.0  37991.58  33540.88  88.29
826.0  38001.34  33384.91  87.85
836.0  38898.28  33872.81  87.08
846.0  40272.93  35095.17  87.14
856.0  41435.70  35802.34  86.40
866.0  42009.41  36185.01  86.14
876.0  42227.12  36167.00  85.65
886.0  42357.46  35872.83  84.69
896.0  41812.69  35091.70  83.93
906.0  41556.83  34634.29  83.34
916.0  41043.62  33823.43  82.41
926.0  40765.22  32801.49  80.46
936.0  41670.71  32280.79  77.47
946.0  42483.47  31460.18  74.05
956.0  43315.05  30192.09  69.70
966.0  43997.52  29821.51  67.78
976.0  44695.21  30037.39  67.20
986.0  47191.67  30416.83  64.45
996.0  47061.19  30703.79  65.24
1006.0  46939.72  31221.30  66.51
1016.0  47337.20  32337.01  68.31
1026.0  47434.95  33168.54  69.92
1036.0  47300.39  33855.31  71.58
1046.0  47814.52  34960.76  73.12
1056.0  48169.66  35758.07  74.23
1066.0  48243.60  36098.13  74.82
1076.0  48081.60  36008.53  74.89
1086.0  48203.49  35812.54  74.29
1096.0  48223.42  35312.81  73.23
1106.0  48093.81  34632.55  72.01
1116.0  47754.46  33654.92  70.47
1126.0  47607.19  32254.41  67.75
1136.0  47567.70  29721.08  62.48
1146.0  47493.03  26730.48  56.28
1156.0  47323.93  24907.50  52.63
1166.0  47127.55  24213.41  51.38
1176.0  47007.28  23891.94  50.83
1186.0  47024.89  23669.08  50.33
1196.0  46427.12  23222.45  50.02
1206.0  45976.77  23050.85  50.14
1216.0  45638.29  23105.79  50.63
1226.0  45257.55  23246.55  51.37
1236.0  44986.64  23401.53  52.02
1246.0  44665.03  23457.01  52.52
1256.0  44348.18  23443.79  52.86
1266.0  44041.29  23319.90  52.95
1276.0  44122.33  23221.13  52.63
1286.0  44180.48  22909.33  51.85
1296.0  43940.70  22238.00  50.61
1306.0  43443.23  21151.58  48.69
1316.0  42852.87  19838.90  46.30
1326.0  42279.85  18358.06  43.42
1336.0  41687.98  16875.38  40.48
1346.0  41087.70  15523.50  37.78
1356.0  40136.77  14202.83  35.39
1366.0  39573.10  13095.19  33.09
1376.0  39448.29  11742.89  29.77
1386.0  39137.19  9676.86  24.73
1396.0  38705.17  7652.35  19.77
1406.0  38283.65  6247.09  16.32
1416.0  38247.12  5524.10  14.44
1426.0  38141.65  5165.63  13.54
1436.0  37993.55  4989.74  13.13
1446.0  37807.56  4909.60  12.99
1456.0  37564.66  4887.70  13.01
1466.0  37374.67  4959.38  13.27
1476.0  37032.66  5125.31  13.84
1486.0  36783.36  5414.52  14.72
1496.0  36446.95  5772.74  15.84
1506.0  36128.16  5995.45  16.59
1516.0  35703.58  6069.39  17.00
1526.0  35355.47  6442.99  18.22
1536.0  35069.58  6745.79  19.24
1546.0  34708.16  7031.86  20.26
1556.0  34457.36  7269.53  21.10
1566.0  34164.86  7491.67  21.93
1576.0  33714.29  7709.62  22.87
1586.0  33359.51  7864.47  23.57
1596.0  32961.11  7977.11  24.20
1606.0  32571.18  8078.56  24.80
1616.0  32156.21  8167.50  25.40
1626.0  31771.93  8244.39  25.95
1636.0  31326.06  8271.89  26.41
1646.0  30840.36  8211.72  26.63
1656.0  30342.57  8109.73  26.73
1666.0  29873.41  7999.95  26.78
1676.0  29453.55  7881.79  26.76
1686.0  29411.45  7775.49  26.44
1696.0  29052.01  7565.11  26.04
1706.0  28613.36  7287.03  25.47
1716.0  27944.47  6923.83  24.78
1726.0  27523.58  6635.65  24.11
1736.0  27167.55  6447.14  23.73
1746.0  26819.99  6245.35  23.29
1756.0  26352.17  5948.69  22.57
1766.0  25950.76  5710.29  22.00
1776.0  25733.96  5586.76  21.71
1786.0  25468.85  5466.13  21.46
1796.0  25144.26  5362.36  21.33
1806.0  24846.88  5296.80  21.32
1816.0  24492.53  5208.80  21.27
1826.0  24049.65  5100.81  21.21
1836.0  23447.37  4928.96  21.02
1846.0  23057.19  4803.47  20.83
1856.0  22644.78  4613.26  20.37
1866.0  22558.57  4047.75  17.94
1876.0  22322.63  3196.54  14.32
1886.0  22034.63  2542.81  11.54
1896.0  21514.98  2130.58  9.90
1906.0  20193.02  1198.99  5.94
1916.0  19960.67  1124.05  5.63
1926.0  19718.96  1094.48  5.55
1936.0  19579.29  1105.69  5.65
1946.0  19560.97  1137.84  5.82
1956.0  19388.55  1184.35  6.11
1966.0  19354.23  1239.39  6.40
1976.0  19201.04  1297.84  6.76
1986.0  18944.59  1357.62  7.17
1996.0  18673.01  1412.05  7.56
2006.0  18514.12  1488.26  8.04
2016.0  18215.64  1532.62  8.41
2026.0  17909.22  1582.02  8.83
2036.0  17652.06  1627.14  9.22
2046.0  17374.82  1670.49  9.61
2056.0  17064.26  1707.44  10.01
2066.0  16791.57  1716.92  10.22
2076.0  16545.25  1764.73  10.67
2086.0  16394.52  1809.77  11.04
2096.0  16100.21  1832.91  11.38
2106.0  15806.06  1856.53  11.75
2116.0  15736.14  1900.84  12.08
2126.0  15554.85  1932.75  12.43
2136.0  15258.51  1935.48  12.68
2146.0  14853.45  1926.40  12.97
2156.0  14604.38  1925.37  13.18
2166.0  14366.07  1914.93  13.33
2176.0  14128.44  1895.75  13.42
2186.0  13980.19  1896.44  13.57
2196.0  13852.76  1866.91  13.48
2206.0  13790.00  1885.84  13.68
2216.0  13655.61  1878.79  13.76
2226.0  13540.23  1805.31  13.33
2236.0  13404.39  1741.72  12.99
2246.0  13162.51  1668.08  12.67
2256.0  12980.74  1583.77  12.20
2266.0  12834.46  1497.69  11.67
2276.0  12713.52  1425.06  11.21
2286.0  12602.64  1354.29  10.75
2296.0  12501.79  1286.32  10.29
2306.0  12136.32  1165.87  9.61
2316.0  11736.06  1132.05  9.65
2326.0  11720.29  1132.72  9.66
2336.0  11665.36  1067.71  9.15
2346.0  11501.61  1032.27  8.98
2356.0  11241.81  970.32  8.63
2366.0  11163.72  932.54  8.35
2376.0  10906.36  894.12  8.20
2386.0  10752.86  838.02  7.79
2396.0  10611.07  831.27  7.83
2406.0  10442.46  762.45  7.30
2416.0  10196.59  745.70  7.31
2426.0  10071.76  686.27  6.81
2436.0  9871.11  668.18  6.77
2446.0  9707.92  617.31  6.36
2456.0  9553.15  598.15  6.26
2466.0  9291.20  573.44  6.17
2476.0  9038.48  519.60  5.75
2486.0  8794.17  494.64  5.62
2496.0  8663.70  489.11  5.65
2506.0  9144.96  496.63  5.43
