/*** Spectra Vista SIG Data ***/
name= GS.sig
comm= Resampled spectral data SIG file reprocesed for matching/overlap;Averaged Ref/Tar of files: GS1,GS2,GS3
data=
346.0  468.20  213.40  45.58
356.0  683.10  247.63  36.25
366.0  906.09  273.91  30.23
376.0  1249.89  298.87  23.91
386.0  1571.27  300.49  19.12
396.0  2026.07  381.61  18.83
406.0  2502.77  393.47  15.72
416.0  3165.14  511.20  16.15
426.0  3668.56  596.91  16.27
436.0  4548.65  712.71  15.67
446.0  5417.72  911.29  16.82
456.0  6302.44  1133.49  17.98
466.0  7615.04  1393.35  18.30
476.0  8743.20  1621.00  18.54
486.0  9533.40  1832.46  19.22
496.0  11257.81  2458.11  21.83
506.0  12699.26  3605.34  28.39
516.0  13281.41  5254.81  39.57
526.0  14721.08  7572.94  51.44
536.0  16749.01  9787.03  58.43
546.0  18621.46  11377.50  61.10
556.0  19066.94  11791.79  61.84
566.0  20585.57  12208.76  59.31
576.0  22670.38  12298.37  54.25
586.0  24106.47  12111.27  50.24
596.0  25247.53  12079.01  47.84
606.0  25711.34  11785.03  45.84
616.0  27649.38  11601.10  41.96
626.0  31025.14  11927.02  38.44
636.0  30881.13  11351.84  36.76
646.0  31238.37  10338.88  33.10
656.0  30360.38  8663.45  28.54
666.0  31764.82  7096.08  22.34
676.0  33416.99  6733.55  20.15
686.0  36086.51  9825.32  27.23
696.0  37161.40  19763.12  53.18
706.0  37800.45  30327.52  80.23
716.0  37597.62  36494.52  97.07
726.0  36909.99  39303.73  106.49
736.0  36510.50  40324.12  110.45
746.0  38642.98  43605.18  112.84
756.0  39260.04  44641.95  113.71
766.0  40452.13  46603.86  115.21
776.0  40956.88  47620.03  116.27
786.0  40712.49  47899.21  117.65
796.0  39541.78  46679.87  118.05
806.0  38183.08  45419.70  118.95
816.0  37991.58  45368.41  119.42
826.0  38001.34  44901.25  118.16
836.0  38898.28  45221.80  116.26
846.0  40272.93  46586.22  115.68
856.0  41435.70  47402.12  114.40
866.0  42009.41  47736.14  113.63
876.0  42227.12  47569.01  112.65
886.0  42357.46  47088.60  111.17
896.0  41812.69  45951.75  109.90
906.0  41556.83  45192.69  108.75
916.0  41043.62  44007.71  107.22
926.0  40765.22  42467.02  104.17
936.0  41670.71  41536.47  99.68
946.0  42483.47  40220.80  94.67
956.0  43315.05  38374.98  88.60
966.0  43997.52  37755.33  85.81
976.0  44695.21  38102.39  85.25
986.0  47191.67  38463.72  81.51
996.0  47061.19  39237.69  83.38
1006.0  46939.72  40015.81  85.25
1016.0  47337.20  41497.82  87.66
1026.0  47434.95  42707.72  90.03
1036.0  47300.39  43679.69  92.35
1046.0  47814.52  45168.96  94.47
1056.0  48169.66  46286.85  96.09
1066.0  48243.60  46745.71  96.90
1076.0  48081.60  46634.14  96.99
1086.0  48203.49  46373.20  96.20
1096.0  48223.42  45683.20  94.73
1106.0  48093.81  44756.92  93.06
1116.0  47754.46  43460.37  91.01
1126.0  47607.19  41647.12  87.48
1136.0  47567.70  38474.27  80.88
1146.0  47493.03  34770.16  73.21
1156.0  47323.93  32502.01  68.68
1166.0  47127.55  31629.21  67.11
1176.0  47007.28  31234.21  66.45
1186.0  47024.89  30980.16  65.88
1196.0  46427.12  30403.08  65.49
1206.0  45976.77  30143.71  65.56
1216.0  45638.29  30167.55  66.10
1226.0  45257.55  30272.79  66.89
1236.0  44986.64  30436.10  67.66
1246.0  44665.03  30491.95  68.27
1256.0  44348.18  30451.03  68.66
1266.0  44041.29  30281.61  68.76
1276.0  44122.33  30180.98  68.40
1286.0  44180.48  29814.69  67.48
1296.0  43940.70  29010.91  66.02
1306.0  43443.23  27726.55  63.82
1316.0  42852.87  26168.78  61.07
1326.0  42279.85  24429.41  57.78
1336.0  41687.98  22669.62  54.38
1346.0  41087.70  21056.62  51.25
1356.0  40136.77  19447.31  48.45
1366.0  39573.10  18098.97  45.74
1376.0  39448.29  16513.78  41.86
1386.0  39137.19  13995.32  35.76
1396.0  38705.17  11411.56  29.48
1406.0  38283.65  9523.54  24.88
1416.0  38247.12  8526.57  22.29
1426.0  38141.65  8030.99  21.06
1436.0  37993.55  7786.56  20.49
1446.0  37807.56  7678.64  20.31
1456.0  37564.66  7644.55  20.35
1466.0  37374.67  7735.13  20.70
1476.0  37032.66  7959.45  21.49
1486.0  36783.36  8354.80  22.71
1496.0  36446.95  8828.03  24.22
1506.0  36128.16  9117.83  25.24
1516.0  35703.58  9166.68  25.67
1526.0  35355.47  9638.29  27.26
1536.0  35069.58  10086.52  28.76
1546.0  34708.16  10438.79  30.08
1556.0  34457.36  10739.36  31.17
1566.0  34164.86  11017.64  32.25
1576.0  33714.29  11283.22  33.47
1586.0  33359.51  11464.06  34.37
1596.0  32961.11  11579.10  35.13
1606.0  32571.18  11691.48  35.90
1616.0  32156.21  11776.28  36.62
1626.0  31771.93  11859.39  37.33
1636.0  31326.06  11874.04  37.90
1646.0  30840.36  11795.69  38.25
1656.0  30342.57  11652.59  38.40
1666.0  29873.41  11505.02  38.51
1676.0  29453.55  11330.19  38.47
1686.0  29411.45  11226.95  38.17
1696.0  29052.01  10947.21  37.68
1706.0  28613.36  10577.64  36.97
1716.0  27944.47  10096.78  36.13
1726.0  27523.58  9715.59  35.30
1736.0  27167.55  9463.65  34.83
1746.0  26819.99  9185.62  34.25
1756.0  26352.17  8786.19  33.34
1766.0  25950.76  8472.23  32.65
1776.0  25733.96  8295.07  32.23
1786.0  25468.85  8122.68  31.89
1796.0  25144.26  7981.09  31.74
1806.0  24846.88  7887.15  31.74
1816.0  24492.53  7765.52  31.71
1826.0  24049.65  7605.95  31.63
1836.0  23447.37  7359.50  31.39
1846.0  23057.19  7200.40  31.23
1856.0  22644.78  6939.62  30.65
1866.0  22558.57  6159.68  27.31
1876.0  22322.63  5017.84  22.48
1886.0  22034.63  4093.01  18.58
1896.0  21514.98  3495.71  16.25
1906.0  20193.02  2260.93  11.20
1916.0  19960.67  2119.82  10.62
1926.0  19718.96  2052.87  10.41
1936.0  19579.29  2052.61  10.48
1946.0  19560.97  2097.68  10.72
1956.0  19388.55  2154.10  11.11
1966.0  19354.23  2254.94  11.65
1976.0  19201.04  2324.27  12.10
1986.0  18944.59  2403.16  12.69
1996.0  18673.01  2489.04  13.33
2006.0  18514.12  2582.08  13.95
2016.0  18215.64  2663.07  14.62
2026.0  17909.22  2717.52  15.17
2036.0  17652.06  2774.05  15.72
2046.0  17374.82  2831.36  16.30
2056.0  17064.26  2858.68  16.75
2066.0  16791.57  2903.71  17.29
2076.0  16545.25  2940.40  17.77
2086.0  16394.52  2999.12  18.29
2096.0  16100.21  3033.26  18.84
2106.0  15806.06  3067.52  19.41
2116.0  15736.14  3129.07  19.88
2126.0  15554.85  3168.48  20.37
2136.0  15258.51  3155.29  20.68
2146.0  14853.45  3131.07  21.08
2156.0  14604.38  3138.11  21.49
2166.0  14366.07  3107.03  21.63
2176.0  14128.44  3077.79  21.78
2186.0  13980.19  3057.26  21.87
2196.0  13852.76  3031.70  21.89
2206.0  13790.00  3026.42  21.95
2216.0  13655.61  3008.26  22.03
2226.0  13540.23  2924.53  21.60
2236.0  13404.39  2852.75  21.28
2246.0  13162.51  2740.32  20.82
2256.0  12980.74  2625.49  20.23
2266.0  12834.46  2516.37  19.61
2276.0  12713.52  2400.56  18.88
2286.0  12602.64  2304.77  18.29
2296.0  12501.79  2193.85  17.55
2306.0  12136.32  2014.88  16.60
2316.0  11736.06  1946.63  16.59
2326.0  11720.29  1953.75  16.67
2336.0  11665.36  1865.55  15.99
2346.0  11501.61  1789.60  15.56
2356.0  11241.81  1701.70  15.14
2366.0  11163.72  1666.58  14.93
2376.0  10906.36  1572.30  14.42
2386.0  10752.86  1497.19  13.92
2396.0  10611.07  1442.03  13.59
2406.0  10442.46  1361.76  13.04
2416.0  10196.59  1319.37  12.94
2426.0  10071.76  1248.00  12.39
2436.0  9871.11  1205.98  12.22
2446.0  9707.92  1132.17  11.66
2456.0  9553.15  1111.84  11.64
2466.0  9291.20  1040.13  11.19
2476.0  9038.48  979.22  10.83
2486.0  8794.17  919.83  10.46
2496.0  8663.70  911.54  10.52
2506.0  9144.96  905.38  9.90
