/*** Spectra Vista SIG Data ***/
name= GT.sig
comm= Resampled spectral data SIG file reprocesed for matching/overlap;Averaged Ref/Tar of files: GT1,GT2,GT3
data=
346.0  468.20  171.99  36.73
356.0  683.10  203.72  29.82
366.0  906.09  221.34  24.43
376.0  1249.89  241.20  19.30
386.0  1571.27  242.76  15.45
396.0  2026.07  312.31  15.41
406.0  2502.77  319.74  12.78
416.0  3165.14  411.83  13.01
426.0  3668.56  460.00  12.54
436.0  4548.65  542.94  11.94
446.0  5417.72  676.62  12.49
456.0  6302.44  819.96  13.01
466.0  7615.04  1010.59  13.27
476.0  8743.20  1164.65  13.32
486.0  9533.40  1305.27  13.69
496.0  11257.81  1697.46  15.08
506.0  12699.26  2391.75  18.83
516.0  13281.41  3402.79  25.62
526.0  14721.08  4906.00  33.33
536.0  16749.01  6375.54  38.07
546.0  18621.46  7436.42  39.93
556.0  19066.94  7790.57  40.86
566.0  20585.57  8057.85  39.14
576.0  22670.38  8050.94  35.51
586.0  24106.47  7883.54  32.70
596.0  25247.53  7858.14  31.12
606.0  25711.34  7701.18  29.95
616.0  27649.38  7646.35  27.65
626.0  31025.14  8401.60  27.08
636.0  30881.13  8163.55  26.44
646.0  31238.37  6742.52  21.58
656.0  30360.38  5408.64  17.81
666.0  31764.82  5064.85  15.94
676.0  33416.99  5028.23  15.05
686.0  36086.51  6972.21  19.32
696.0  37161.40  13584.42  36.56
706.0  37800.45  21913.36  57.97
716.0  37597.62  27713.85  73.71
726.0  36909.99  30940.26  83.83
736.0  36510.50  32325.56  88.54
746.0  38642.98  35100.62  90.83
756.0  39260.04  36364.03  92.62
766.0  40452.13  37762.95  93.35
776.0  40956.88  38659.01  94.39
786.0  40712.49  38825.82  95.37
796.0  39541.78  38494.49  97.35
806.0  38183.08  37646.52  98.59
816.0  37991.58  37638.29  99.07
826.0  38001.34  37434.69  98.51
836.0  38898.28  37548.47  96.53
846.0  40272.93  38446.67  95.47
856.0  41435.70  39416.32  95.13
866.0  42009.41  39672.01  94.44
876.0  42227.12  39532.57  93.62
886.0  42357.46  39342.25  92.88
896.0  41812.69  38455.26  91.97
906.0  41556.83  37771.14  90.89
916.0  41043.62  36692.49  89.40
926.0  40765.22  35253.48  86.48
936.0  41670.71  34210.34  82.10
946.0  42483.47  32629.25  76.80
956.0  43315.05  30701.89  70.88
966.0  43997.52  29986.46  68.15
976.0  44695.21  30445.11  68.12
986.0  47191.67  30128.72  63.84
996.0  47061.19  31461.85  66.85
1006.0  46939.72  32463.32  69.16
1016.0  47337.20  33905.21  71.62
1026.0  47434.95  35277.35  74.37
1036.0  47300.39  36400.82  76.96
1046.0  47814.52  37805.99  79.07
1056.0  48169.66  38878.55  80.71
1066.0  48243.60  39351.34  81.57
1076.0  48081.60  39262.93  81.66
1086.0  48203.49  38994.86  80.90
1096.0  48223.42  38301.35  79.42
1106.0  48093.81  37314.36  77.59
1116.0  47754.46  36082.82  75.56
1126.0  47607.19  34373.53  72.20
1136.0  47567.70  31329.66  65.86
1146.0  47493.03  27825.83  58.59
1156.0  47323.93  25602.20  54.10
1166.0  47127.55  24728.67  52.47
1176.0  47007.28  24348.01  51.80
1186.0  47024.89  24096.35  51.24
1196.0  46427.12  23641.92  50.92
1206.0  45976.77  23417.93  50.93
1216.0  45638.29  23442.45  51.37
1226.0  45257.55  23573.46  52.09
1236.0  44986.64  23732.63  52.75
1246.0  44665.03  23801.04  53.29
1256.0  44348.18  23784.30  53.63
1266.0  44041.29  23629.84  53.65
1276.0  44122.33  23549.89  53.37
1286.0  44180.48  23223.50  52.57
1296.0  43940.70  22525.78  51.26
1306.0  43443.23  21438.91  49.35
1316.0  42852.87  20076.96  46.85
1326.0  42279.85  18561.44  43.90
1336.0  41687.98  17073.46  40.96
1346.0  41087.70  15724.96  38.27
1356.0  40136.77  14506.08  36.14
1366.0  39573.10  13371.55  33.79
1376.0  39448.29  12100.32  30.67
1386.0  39137.19  10191.07  26.04
1396.0  38705.17  8260.58  21.34
1406.0  38283.65  6926.55  18.09
1416.0  38247.12  6207.82  16.23
1426.0  38141.65  5864.96  15.38
1436.0  37993.55  5691.98  14.98
1446.0  37807.56  5597.35  14.80
1456.0  37564.66  5583.70  14.86
1466.0  37374.67  5633.51  15.07
1476.0  37032.66  5765.34  15.57
1486.0  36783.36  6023.92  16.38
1496.0  36446.95  6347.04  17.41
1506.0  36128.16  6585.18  18.23
1516.0  35703.58  6775.35  18.98
1526.0  35355.47  6939.82  19.63
1536.0  35069.58  7170.89  20.45
1546.0  34708.16  7264.73  20.93
1556.0  34457.36  7469.73  21.68
1566.0  34164.86  7806.41  22.85
1576.0  33714.29  8019.54  23.79
1586.0  33359.51  8148.80  24.43
1596.0  32961.11  8260.69  25.06
1606.0  32571.18  8342.42  25.61
1616.0  32156.21  8403.98  26.13
1626.0  31771.93  8459.29  26.63
1636.0  31326.06  8490.96  27.11
1646.0  30840.36  8486.52  27.52
1656.0  30342.57  8444.76  27.83
1666.0  29873.41  8354.90  27.97
1676.0  29453.55  8224.43  27.92
1686.0  29411.45  8125.83  27.63
1696.0  29052.01  7908.88  27.22
1706.0  28613.36  7622.04  26.64
1716.0  27944.47  7258.23  25.97
1726.0  27523.58  6950.83  25.25
1736.0  27167.55  6751.94  24.85
1746.0  26819.99  6552.92  24.43
1756.0  26352.17  6274.86  23.81
1766.0  25950.76  6051.45  23.32
1776.0  25733.96  5918.22  23.00
1786.0  25468.85  5784.83  22.71
1796.0  25144.26  5677.27  22.58
1806.0  24846.88  5608.98  22.57
1816.0  24492.53  5519.81  22.54
1826.0  24049.65  5397.66  22.44
1836.0  23447.37  5213.37  22.23
1846.0  23057.19  5004.36  21.70
1856.0  22644.78  4714.65  20.82
1866.0  22558.57  4383.37  19.43
1876.0  22322.63  3775.11  16.91
1886.0  22034.63  3197.44  14.51
1896.0  21514.98  2790.91  12.97
1906.0  20193.02  1477.24  7.32
1916.0  19960.67  1459.97  7.31
1926.0  19718.96  1448.20  7.34
1936.0  19579.29  1441.53  7.36
1946.0  19560.97  1477.87  7.56
1956.0  19388.55  1517.90  7.83
1966.0  19354.23  1556.76  8.04
1976.0  19201.04  1616.46  8.42
1986.0  18944.59  1653.24  8.73
1996.0  18673.01  1695.65  9.08
2006.0  18514.12  1761.86  9.52
2016.0  18215.64  1791.89  9.84
2026.0  17909.22  1821.80  10.17
2036.0  17652.06  1863.28  10.56
2046.0  17374.82  1891.08  10.88
2056.0  17064.26  1918.99  11.25
2066.0  16791.57  1929.35  11.49
2076.0  16545.25  1950.46  11.79
2086.0  16394.52  1988.83  12.13
2096.0  16100.21  2018.75  12.54
2106.0  15806.06  2026.12  12.82
2116.0  15736.14  2068.86  13.15
2126.0  15554.85  2090.65  13.44
2136.0  15258.51  2101.43  13.77
2146.0  14853.45  2088.19  14.06
2156.0  14604.38  2066.01  14.15
2166.0  14366.07  2063.52  14.36
2176.0  14128.44  2056.65  14.56
2186.0  13980.19  2050.27  14.67
2196.0  13852.76  2023.13  14.60
2206.0  13790.00  2027.24  14.70
2216.0  13655.61  2013.89  14.75
2226.0  13540.23  1971.52  14.56
2236.0  13404.39  1914.87  14.29
2246.0  13162.51  1836.86  13.96
2256.0  12980.74  1770.86  13.64
2266.0  12834.46  1704.95  13.28
2276.0  12713.52  1643.12  12.92
2286.0  12602.64  1576.94  12.51
2296.0  12501.79  1512.81  12.10
2306.0  12136.32  1419.37  11.70
2316.0  11736.06  1338.44  11.40
2326.0  11720.29  1365.53  11.65
2336.0  11665.36  1323.83  11.35
2346.0  11501.61  1269.46  11.04
2356.0  11241.81  1215.08  10.81
2366.0  11163.72  1172.35  10.50
2376.0  10906.36  1141.84  10.47
2386.0  10752.86  1106.14  10.29
2396.0  10611.07  1073.40  10.12
2406.0  10442.46  1016.81  9.74
2416.0  10196.59  1007.74  9.88
2426.0  10071.76  964.79  9.58
2436.0  9871.11  931.32  9.43
2446.0  9707.92  871.43  8.98
2456.0  9553.15  870.49  9.11
2466.0  9291.20  823.60  8.86
2476.0  9038.48  772.46  8.55
2486.0  8794.17  776.15  8.83
2496.0  8663.70  708.35  8.18
2506.0  9144.96  721.45  7.89
