/*** Spectra Vista SIG Data ***/
name= RB.sig
comm= Resampled spectral data SIG file reprocesed for matching/overlap;Averaged Ref/Tar of files: RB1,RB2,RB3
data=
346.0  468.20  131.01  27.98
356.0  683.10  152.54  22.33
366.0  906.09  169.19  18.67
376.0  1249.89  180.40  14.43
386.0  1571.27  174.99  11.14
396.0  2026.07  226.06  11.16
406.0  2502.77  222.06  8.87
416.0  3165.14  276.71  8.74
426.0  3668.56  307.50  8.38
436.0  4548.65  358.28  7.88
446.0  5417.72  422.48  7.80
456.0  6302.44  479.09  7.60
466.0  7615.04  571.57  7.51
476.0  8743.20  646.18  7.39
486.0  9533.40  675.90  7.09
496.0  11257.81  807.61  7.17
506.0  12699.26  945.52  7.45
516.0  13281.41  1037.35  7.81
526.0  14721.08  1186.80  8.06
536.0  16749.01  1382.60  8.25
546.0  18621.46  1577.58  8.47
556.0  19066.94  1690.67  8.87
566.0  20585.57  1979.08  9.61
576.0  22670.38  2482.00  10.95
586.0  24106.47  3151.91  13.07
596.0  25247.53  3953.41  15.66
606.0  25711.34  4640.16  18.05
616.0  27649.38  5369.03  19.42
626.0  31025.14  6409.81  20.66
636.0  30881.13  6822.28  22.09
646.0  31238.37  6013.33  19.25
656.0  30360.38  5198.82  17.12
666.0  31764.82  4630.80  14.58
676.0  33416.99  4493.04  13.45
686.0  36086.51  6529.08  18.09
696.0  37161.40  12948.92  34.85
706.0  37800.45  19464.30  51.49
716.0  37597.62  23286.84  61.94
726.0  36909.99  25161.31  68.17
736.0  36510.50  25837.44  70.77
746.0  38642.98  27877.62  72.14
756.0  39260.04  28951.08  73.74
766.0  40452.13  30168.31  74.58
776.0  40956.88  31004.65  75.70
786.0  40712.49  31212.14  76.66
796.0  39541.78  30953.55  78.28
806.0  38183.08  30259.51  79.25
816.0  37991.58  30282.71  79.71
826.0  38001.34  30153.67  79.35
836.0  38898.28  30299.64  77.89
846.0  40272.93  31067.70  77.14
856.0  41435.70  31774.37  76.68
866.0  42009.41  31935.00  76.02
876.0  42227.12  31824.38  75.36
886.0  42357.46  31589.42  74.58
896.0  41812.69  30815.60  73.70
906.0  41556.83  30263.45  72.82
916.0  41043.62  29386.65  71.60
926.0  40765.22  28290.09  69.40
936.0  41670.71  27502.12  66.00
946.0  42483.47  26355.18  62.04
956.0  43315.05  24899.88  57.49
966.0  43997.52  24329.41  55.30
976.0  44695.21  24492.74  54.80
986.0  47191.67  24926.70  52.82
996.0  47061.19  25436.74  54.05
1006.0  46939.72  26090.46  55.58
1016.0  47337.20  27210.13  57.48
1026.0  47434.95  28185.39  59.42
1036.0  47300.39  29020.37  61.35
1046.0  47814.52  30144.04  63.04
1056.0  48169.66  30975.56  64.31
1066.0  48243.60  31355.80  64.99
1076.0  48081.60  31316.16  65.13
1086.0  48203.49  31133.93  64.59
1096.0  48223.42  30621.08  63.50
1106.0  48093.81  29900.92  62.17
1116.0  47754.46  28945.83  60.61
1126.0  47607.19  27598.56  57.97
1136.0  47567.70  25188.10  52.95
1146.0  47493.03  22448.36  47.27
1156.0  47323.93  20724.62  43.79
1166.0  47127.55  20033.48  42.51
1176.0  47007.28  19714.04  41.94
1186.0  47024.89  19495.45  41.46
1196.0  46427.12  19125.08  41.19
1206.0  45976.77  18946.64  41.21
1216.0  45638.29  19002.19  41.64
1226.0  45257.55  19146.31  42.31
1236.0  44986.64  19310.57  42.93
1246.0  44665.03  19378.83  43.39
1256.0  44348.18  19393.77  43.73
1266.0  44041.29  19302.96  43.83
1276.0  44122.33  19252.39  43.63
1286.0  44180.48  19023.93  43.06
1296.0  43940.70  18505.73  42.12
1306.0  43443.23  17643.55  40.61
1316.0  42852.87  16579.14  38.69
1326.0  42279.85  15384.21  36.39
1336.0  41687.98  14194.51  34.05
1346.0  41087.70  13101.77  31.89
1356.0  40136.77  12033.65  29.98
1366.0  39573.10  11153.77  28.19
1376.0  39448.29  10104.08  25.61
1386.0  39137.19  8502.51  21.72
1396.0  38705.17  6832.61  17.65
1406.0  38283.65  5616.90  14.67
1416.0  38247.12  4947.59  12.94
1426.0  38141.65  4609.32  12.08
1436.0  37993.55  4448.78  11.71
1446.0  37807.56  4371.70  11.56
1456.0  37564.66  4354.38  11.59
1466.0  37374.67  4397.15  11.77
1476.0  37032.66  4520.06  12.21
1486.0  36783.36  4759.92  12.94
1496.0  36446.95  5039.68  13.83
1506.0  36128.16  5224.53  14.46
1516.0  35703.58  5374.69  15.05
1526.0  35355.47  5565.19  15.74
1536.0  35069.58  5749.71  16.40
1546.0  34708.16  5933.63  17.10
1556.0  34457.36  6138.51  17.81
1566.0  34164.86  6307.15  18.46
1576.0  33714.29  6478.34  19.22
1586.0  33359.51  6595.39  19.77
1596.0  32961.11  6678.64  20.26
1606.0  32571.18  6755.22  20.74
1616.0  32156.21  6823.81  21.22
1626.0  31771.93  6885.55  21.67
1636.0  31326.06  6913.27  22.07
1646.0  30840.36  6899.84  22.37
1656.0  30342.57  6851.34  22.58
1666.0  29873.41  6772.25  22.67
1676.0  29453.55  6661.18  22.62
1686.0  29411.45  6568.93  22.33
1696.0  29052.01  6390.67  22.00
1706.0  28613.36  6158.99  21.52
1716.0  27944.47  5858.52  20.96
1726.0  27523.58  5614.61  20.40
1736.0  27167.55  5466.48  20.12
1746.0  26819.99  5316.00  19.82
1756.0  26352.17  5089.95  19.32
1766.0  25950.76  4908.03  18.91
1776.0  25733.96  4811.64  18.70
1786.0  25468.85  4709.76  18.49
1796.0  25144.26  4630.98  18.42
1806.0  24846.88  4574.76  18.41
1816.0  24492.53  4505.91  18.40
1826.0  24049.65  4416.36  18.36
1836.0  23447.37  4262.64  18.18
1846.0  23057.19  4123.20  17.88
1856.0  22644.78  3880.30  17.14
1866.0  22558.57  3484.59  15.45
1876.0  22322.63  2897.98  12.98
1886.0  22034.63  2355.98  10.69
1896.0  21514.98  2011.83  9.35
1906.0  20193.02  1070.62  5.30
1916.0  19960.67  1020.71  5.11
1926.0  19718.96  1010.43  5.12
1936.0  19579.29  994.97  5.08
1946.0  19560.97  1010.41  5.17
1956.0  19388.55  1043.06  5.38
1966.0  19354.23  1082.09  5.59
1976.0  19201.04  1120.55  5.84
1986.0  18944.59  1148.40  6.06
1996.0  18673.01  1199.19  6.42
2006.0  18514.12  1239.98  6.70
2016.0  18215.64  1255.77  6.89
2026.0  17909.22  1279.27  7.14
2036.0  17652.06  1290.39  7.31
2046.0  17374.82  1314.40  7.56
2056.0  17064.26  1335.91  7.83
2066.0  16791.57  1318.15  7.85
2076.0  16545.25  1343.56  8.12
2086.0  16394.52  1368.14  8.35
2096.0  16100.21  1388.14  8.62
2106.0  15806.06  1383.03  8.75
2116.0  15736.14  1419.91  9.02
2126.0  15554.85  1449.93  9.32
2136.0  15258.51  1435.68  9.41
2146.0  14853.45  1444.90  9.73
2156.0  14604.38  1446.58  9.91
2166.0  14366.07  1443.82  10.05
2176.0  14128.44  1437.76  10.18
2186.0  13980.19  1444.15  10.33
2196.0  13852.76  1442.25  10.41
2206.0  13790.00  1456.76  10.56
2216.0  13655.61  1428.37  10.46
2226.0  13540.23  1407.21  10.39
2236.0  13404.39  1366.25  10.19
2246.0  13162.51  1291.22  9.81
2256.0  12980.74  1225.22  9.44
2266.0  12834.46  1167.02  9.09
2276.0  12713.52  1122.72  8.83
2286.0  12602.64  1083.22  8.60
2296.0  12501.79  1018.83  8.15
2306.0  12136.32  938.35  7.73
2316.0  11736.06  920.02  7.84
2326.0  11720.29  901.93  7.70
2336.0  11665.36  886.25  7.60
2346.0  11501.61  850.09  7.39
2356.0  11241.81  798.88  7.11
2366.0  11163.72  785.49  7.04
2376.0  10906.36  749.45  6.87
2386.0  10752.86  716.70  6.67
2396.0  10611.07  706.27  6.66
2406.0  10442.46  652.37  6.25
2416.0  10196.59  656.72  6.44
2426.0  10071.76  617.42  6.13
2436.0  9871.11  572.90  5.80
2446.0  9707.92  564.45  5.81
2456.0  9553.15  514.35  5.38
2466.0  9291.20  502.51  5.41
2476.0  9038.48  488.18  5.40
2486.0  8794.17  469.29  5.34
2496.0  8663.70  451.58  5.21
2506.0  9144.96  420.35  4.60
