/*** Spectra Vista SIG Data ***/
name= RS.sig
comm= Resampled spectral data SIG file reprocesed for matching/overlap;Averaged Ref/Tar of files: RS1,RS2,RS3
data=
346.0  468.20  61.26  13.08
356.0  683.10  73.20  10.72
366.0  906.09  77.26  8.53
376.0  1249.89  79.24  6.34
386.0  1571.27  81.80  5.21
396.0  2026.07  104.39  5.15
406.0  2502.77  101.99  4.08
416.0  3165.14  123.36  3.90
426.0  3668.56  130.96  3.57
436.0  4548.65  148.83  3.27
446.0  5417.72  175.27  3.24
456.0  6302.44  192.63  3.06
466.0  7615.04  229.90  3.02
476.0  8743.20  255.90  2.93
486.0  9533.40  266.81  2.80
496.0  11257.81  313.77  2.79
506.0  12699.26  361.78  2.85
516.0  13281.41  385.38  2.90
526.0  14721.08  430.54  2.92
536.0  16749.01  499.82  2.98
546.0  18621.46  581.97  3.13
556.0  19066.94  636.26  3.34
566.0  20585.57  777.65  3.78
576.0  22670.38  1037.68  4.58
586.0  24106.47  1411.58  5.86
596.0  25247.53  1877.21  7.44
606.0  25711.34  2353.04  9.15
616.0  27649.38  2923.59  10.57
626.0  31025.14  3195.70  10.30
636.0  30881.13  3859.99  12.50
646.0  31238.37  4026.19  12.89
656.0  30360.38  3659.85  12.05
666.0  31764.82  3040.64  9.57
676.0  33416.99  2853.35  8.54
686.0  36086.51  4295.42  11.90
696.0  37161.40  8303.95  22.35
706.0  37800.45  11545.36  30.54
716.0  37597.62  12984.96  34.54
726.0  36909.99  13447.84  36.43
736.0  36510.50  13475.04  36.91
746.0  38642.98  14478.65  37.47
756.0  39260.04  14746.58  37.56
766.0  40452.13  15498.82  38.31
776.0  40956.88  15847.85  38.69
786.0  40712.49  15940.28  39.15
796.0  39541.78  15378.86  38.89
806.0  38183.08  14886.43  38.99
816.0  37991.58  14892.64  39.20
826.0  38001.34  14641.93  38.53
836.0  38898.28  14758.48  37.94
846.0  40272.93  15302.17  38.00
856.0  41435.70  15564.21  37.56
866.0  42009.41  15739.91  37.47
876.0  42227.12  15715.77  37.22
886.0  42357.46  15450.97  36.48
896.0  41812.69  14992.37  35.86
906.0  41556.83  14677.01  35.32
916.0  41043.62  14170.52  34.53
926.0  40765.22  13517.95  33.16
936.0  41670.71  13056.35  31.33
946.0  42483.47  12451.39  29.31
956.0  43315.05  11628.12  26.85
966.0  43997.52  11296.78  25.68
976.0  44695.21  10940.56  24.48
986.0  47191.67  11878.52  25.17
996.0  47061.19  11858.10  25.20
1006.0  46939.72  12160.10  25.91
1016.0  47337.20  12675.04  26.78
1026.0  47434.95  13085.10  27.59
1036.0  47300.39  13464.86  28.47
1046.0  47814.52  14021.91  29.33
1056.0  48169.66  14452.16  30.00
1066.0  48243.60  14673.59  30.42
1076.0  48081.60  14650.02  30.47
1086.0  48203.49  14533.19  30.15
1096.0  48223.42  14272.84  29.60
1106.0  48093.81  13941.70  28.99
1116.0  47754.46  13438.71  28.14
1126.0  47607.19  12715.44  26.71
1136.0  47567.70  11455.38  24.08
1146.0  47493.03  10053.74  21.17
1156.0  47323.93  9251.43  19.55
1166.0  47127.55  8944.68  18.98
1176.0  47007.28  8791.03  18.70
1186.0  47024.89  8695.41  18.49
1196.0  46427.12  8513.88  18.34
1206.0  45976.77  8458.68  18.40
1216.0  45638.29  8487.13  18.60
1226.0  45257.55  8570.41  18.94
1236.0  44986.64  8652.53  19.23
1246.0  44665.03  8689.28  19.45
1256.0  44348.18  8702.40  19.62
1266.0  44041.29  8689.62  19.73
1276.0  44122.33  8656.13  19.62
1286.0  44180.48  8529.13  19.31
1296.0  43940.70  8266.11  18.81
1306.0  43443.23  7836.49  18.04
1316.0  42852.87  7314.27  17.07
1326.0  42279.85  6714.97  15.88
1336.0  41687.98  6117.22  14.67
1346.0  41087.70  5594.29  13.62
1356.0  40136.77  5098.96  12.70
1366.0  39573.10  4678.99  11.82
1376.0  39448.29  4176.13  10.59
1386.0  39137.19  3405.60  8.70
1396.0  38705.17  2656.35  6.86
1406.0  38283.65  2174.21  5.68
1416.0  38247.12  1929.88  5.05
1426.0  38141.65  1817.73  4.77
1436.0  37993.55  1757.74  4.63
1446.0  37807.56  1731.90  4.58
1456.0  37564.66  1721.85  4.58
1466.0  37374.67  1740.67  4.66
1476.0  37032.66  1785.79  4.82
1486.0  36783.36  1886.20  5.13
1496.0  36446.95  1996.40  5.48
1506.0  36128.16  1993.63  5.52
1516.0  35703.58  2086.08  5.84
1526.0  35355.47  2184.96  6.18
1536.0  35069.58  2281.87  6.51
1546.0  34708.16  2371.74  6.83
1556.0  34457.36  2451.77  7.12
1566.0  34164.86  2521.04  7.38
1576.0  33714.29  2597.94  7.71
1586.0  33359.51  2655.57  7.96
1596.0  32961.11  2691.74  8.17
1606.0  32571.18  2735.23  8.40
1616.0  32156.21  2762.40  8.59
1626.0  31771.93  2802.20  8.82
1636.0  31326.06  2822.31  9.01
1646.0  30840.36  2797.30  9.07
1656.0  30342.57  2756.99  9.09
1666.0  29873.41  2714.16  9.09
1676.0  29453.55  2667.99  9.06
1686.0  29411.45  2644.37  8.99
1696.0  29052.01  2583.44  8.89
1706.0  28613.36  2500.32  8.74
1716.0  27944.47  2386.21  8.54
1726.0  27523.58  2292.22  8.33
1736.0  27167.55  2224.91  8.19
1746.0  26819.99  2152.36  8.03
1756.0  26352.17  2056.12  7.80
1766.0  25950.76  1977.72  7.62
1776.0  25733.96  1934.87  7.52
1786.0  25468.85  1891.39  7.43
1796.0  25144.26  1865.24  7.42
1806.0  24846.88  1852.39  7.46
1816.0  24492.53  1828.47  7.47
1826.0  24049.65  1798.03  7.48
1836.0  23447.37  1752.16  7.47
1846.0  23057.19  1725.14  7.48
1856.0  22644.78  1691.96  7.47
1866.0  22558.57  1499.67  6.65
1876.0  22322.63  1226.23  5.49
1886.0  22034.63  1024.84  4.65
1896.0  21514.98  911.32  4.24
1906.0  20193.02  577.72  2.86
1916.0  19960.67  544.91  2.73
1926.0  19718.96  541.24  2.74
1936.0  19579.29  525.05  2.68
1946.0  19560.97  518.03  2.65
1956.0  19388.55  536.16  2.77
1966.0  19354.23  541.14  2.80
1976.0  19201.04  544.95  2.84
1986.0  18944.59  556.90  2.94
1996.0  18673.01  560.58  3.00
2006.0  18514.12  590.52  3.19
2016.0  18215.64  576.53  3.17
2026.0  17909.22  598.35  3.34
2036.0  17652.06  599.91  3.40
2046.0  17374.82  606.78  3.49
2056.0  17064.26  606.22  3.55
2066.0  16791.57  597.76  3.56
2076.0  16545.25  611.86  3.70
2086.0  16394.52  618.16  3.77
2096.0  16100.21  611.35  3.80
2106.0  15806.06  621.60  3.93
2116.0  15736.14  633.51  4.03
2126.0  15554.85  634.94  4.08
2136.0  15258.51  629.68  4.13
2146.0  14853.45  637.56  4.29
2156.0  14604.38  625.06  4.28
2166.0  14366.07  627.63  4.37
2176.0  14128.44  630.85  4.47
2186.0  13980.19  622.07  4.45
2196.0  13852.76  612.93  4.42
2206.0  13790.00  634.12  4.60
2216.0  13655.61  647.17  4.74
2226.0  13540.23  601.86  4.45
2236.0  13404.39  587.67  4.38
2246.0  13162.51  578.72  4.40
2256.0  12980.74  537.55  4.14
2266.0  12834.46  537.42  4.19
2276.0  12713.52  509.51  4.01
2286.0  12602.64  500.86  3.97
2296.0  12501.79  469.44  3.75
2306.0  12136.32  432.02  3.56
2316.0  11736.06  430.30  3.67
2326.0  11720.29  434.85  3.71
2336.0  11665.36  405.81  3.48
2346.0  11501.61  396.01  3.44
2356.0  11241.81  397.55  3.54
2366.0  11163.72  373.26  3.34
2376.0  10906.36  377.35  3.46
2386.0  10752.86  356.70  3.32
2396.0  10611.07  346.25  3.26
2406.0  10442.46  342.56  3.28
2416.0  10196.59  336.48  3.30
2426.0  10071.76  311.71  3.09
2436.0  9871.11  282.98  2.87
2446.0  9707.92  291.50  3.00
2456.0  9553.15  281.10  2.94
2466.0  9291.20  270.30  2.91
2476.0  9038.48  247.21  2.74
2486.0  8794.17  266.07  3.03
2496.0  8663.70  240.95  2.78
2506.0  9144.96  290.06  3.17
