/*** Spectra Vista SIG Data ***/
name= D.sig
comm= Resampled spectral data SIG file reprocesed for matching/overlap;Averaged Ref/Tar of files: D11,D12,D13
data=
346.0  468.20  77.29  16.51
356.0  683.10  87.59  12.82
366.0  906.09  89.46  9.87
376.0  1249.89  90.71  7.26
386.0  1571.27  91.28  5.81
396.0  2026.07  114.93  5.67
406.0  2502.77  97.12  3.88
416.0  3165.14  118.82  3.75
426.0  3668.56  122.73  3.35
436.0  4548.65  132.71  2.92
446.0  5417.72  154.15  2.85
456.0  6302.44  160.99  2.55
466.0  7615.04  187.75  2.47
476.0  8743.20  205.36  2.35
486.0  9533.40  208.58  2.19
496.0  11257.81  241.68  2.15
506.0  12699.26  277.31  2.18
516.0  13281.41  293.28  2.21
526.0  14721.08  331.07  2.25
536.0  16749.01  388.29  2.32
546.0  18621.46  436.54  2.34
556.0  19066.94  468.96  2.46
566.0  20585.57  538.71  2.62
576.0  22670.38  672.88  2.97
586.0  24106.47  868.03  3.60
596.0  25247.53  1129.73  4.47
606.0  25711.34  1467.10  5.71
616.0  27649.38  1989.64  7.20
626.0  31025.14  2511.31  8.09
636.0  30881.13  3115.78  10.09
646.0  31238.37  3579.85  11.46
656.0  30360.38  3084.94  10.16
666.0  31764.82  2816.17  8.87
676.0  33416.99  2702.26  8.09
686.0  36086.51  4212.98  11.67
696.0  37161.40  8932.04  24.04
706.0  37800.45  13277.29  35.12
716.0  37597.62  15559.44  41.38
726.0  36909.99  16493.51  44.69
736.0  36510.50  16744.37  45.86
746.0  38642.98  18142.00  46.95
756.0  39260.04  18536.94  47.22
766.0  40452.13  19554.60  48.34
776.0  40956.88  20072.36  49.01
786.0  40712.49  20284.09  49.82
796.0  39541.78  19689.53  49.79
806.0  38183.08  19135.98  50.12
816.0  37991.58  19164.59  50.44
826.0  38001.34  18780.23  49.42
836.0  38898.28  18841.14  48.44
846.0  40272.93  19432.98  48.25
856.0  41435.70  19691.47  47.52
866.0  42009.41  19867.01  47.29
876.0  42227.12  19813.19  46.92
886.0  42357.46  19505.17  46.05
896.0  41812.69  18981.52  45.40
906.0  41556.83  18586.11  44.72
916.0  41043.62  17926.23  43.68
926.0  40765.22  17077.65  41.89
936.0  41670.71  16497.72  39.59
946.0  42483.47  15660.87  36.86
956.0  43315.05  14591.35  33.69
966.0  43997.52  14112.28  32.08
976.0  44695.21  13437.45  30.06
986.0  47191.67  15417.92  32.67
996.0  47061.19  15788.63  33.55
1006.0  46939.72  16274.90  34.67
1016.0  47337.20  16915.75  35.73
1026.0  47434.95  17492.71  36.88
1036.0  47300.39  17979.99  38.01
1046.0  47814.52  18714.16  39.14
1056.0  48169.66  19321.97  40.11
1066.0  48243.60  19605.89  40.64
1076.0  48081.60  19573.13  40.71
1086.0  48203.49  19434.53  40.32
1096.0  48223.42  19104.20  39.62
1106.0  48093.81  18650.30  38.78
1116.0  47754.46  17995.82  37.68
1126.0  47607.19  17066.57  35.85
1136.0  47567.70  15486.45  32.56
1146.0  47493.03  13638.68  28.72
1156.0  47323.93  12479.30  26.37
1166.0  47127.55  12006.15  25.48
1176.0  47007.28  11788.50  25.08
1186.0  47024.89  11639.89  24.75
1196.0  46427.12  11383.74  24.52
1206.0  45976.77  11280.22  24.53
1216.0  45638.29  11304.76  24.77
1226.0  45257.55  11397.46  25.18
1236.0  44986.64  11503.69  25.57
1246.0  44665.03  11571.45  25.91
1256.0  44348.18  11580.93  26.11
1266.0  44041.29  11540.96  26.20
1276.0  44122.33  11501.93  26.07
1286.0  44180.48  11323.19  25.63
1296.0  43940.70  10969.33  24.96
1306.0  43443.23  10417.27  23.98
1316.0  42852.87  9728.86  22.70
1326.0  42279.85  8918.55  21.09
1336.0  41687.98  8089.07  19.40
1346.0  41087.70  7388.02  17.98
1356.0  40136.77  6755.58  16.83
1366.0  39573.10  6124.28  15.48
1376.0  39448.29  5433.09  13.77
1386.0  39137.19  4326.08  11.05
1396.0  38705.17  3212.68  8.30
1406.0  38283.65  2437.01  6.37
1416.0  38247.12  2026.96  5.30
1426.0  38141.65  1823.64  4.78
1436.0  37993.55  1726.47  4.54
1446.0  37807.56  1678.20  4.44
1456.0  37564.66  1669.09  4.44
1466.0  37374.67  1693.37  4.53
1476.0  37032.66  1761.97  4.76
1486.0  36783.36  1898.56  5.16
1496.0  36446.95  2076.20  5.70
1506.0  36128.16  2167.07  6.00
1516.0  35703.58  2252.25  6.31
1526.0  35355.47  2392.11  6.77
1536.0  35069.58  2541.95  7.25
1546.0  34708.16  2654.54  7.65
1556.0  34457.36  2773.12  8.05
1566.0  34164.86  2911.56  8.52
1576.0  33714.29  3043.29  9.03
1586.0  33359.51  3129.18  9.38
1596.0  32961.11  3192.63  9.69
1606.0  32571.18  3265.23  10.02
1616.0  32156.21  3329.06  10.35
1626.0  31771.93  3379.82  10.64
1636.0  31326.06  3411.49  10.89
1646.0  30840.36  3408.29  11.05
1656.0  30342.57  3361.51  11.08
1666.0  29873.41  3319.31  11.11
1676.0  29453.55  3268.68  11.10
1686.0  29411.45  3233.08  10.99
1696.0  29052.01  3148.28  10.84
1706.0  28613.36  3024.96  10.57
1716.0  27944.47  2865.48  10.25
1726.0  27523.58  2716.56  9.87
1736.0  27167.55  2623.57  9.66
1746.0  26819.99  2536.75  9.46
1756.0  26352.17  2407.46  9.14
1766.0  25950.76  2302.75  8.87
1776.0  25733.96  2245.98  8.73
1786.0  25468.85  2187.87  8.59
1796.0  25144.26  2150.83  8.55
1806.0  24846.88  2134.22  8.59
1816.0  24492.53  2117.70  8.65
1826.0  24049.65  2081.29  8.65
1836.0  23447.37  2025.38  8.64
1846.0  23057.19  1970.74  8.55
1856.0  22644.78  1885.27  8.33
1866.0  22558.57  1623.96  7.20
1876.0  22322.63  1230.87  5.51
1886.0  22034.63  932.98  4.23
1896.0  21514.98  767.97  3.57
1906.0  20193.02  343.41  1.70
1916.0  19960.67  318.82  1.60
1926.0  19718.96  304.57  1.54
1936.0  19579.29  317.20  1.62
1946.0  19560.97  323.17  1.65
1956.0  19388.55  326.89  1.69
1966.0  19354.23  352.81  1.82
1976.0  19201.04  377.35  1.97
1986.0  18944.59  386.58  2.04
1996.0  18673.01  410.34  2.20
2006.0  18514.12  419.37  2.27
2016.0  18215.64  453.11  2.49
2026.0  17909.22  465.24  2.60
2036.0  17652.06  474.93  2.69
2046.0  17374.82  490.63  2.82
2056.0  17064.26  498.53  2.92
2066.0  16791.57  500.19  2.98
2076.0  16545.25  522.89  3.16
2086.0  16394.52  540.40  3.30
2096.0  16100.21  561.57  3.49
2106.0  15806.06  563.30  3.56
2116.0  15736.14  585.59  3.72
2126.0  15554.85  593.28  3.81
2136.0  15258.51  604.57  3.96
2146.0  14853.45  607.16  4.09
2156.0  14604.38  608.45  4.17
2166.0  14366.07  615.66  4.29
2176.0  14128.44  619.10  4.38
2186.0  13980.19  627.83  4.49
2196.0  13852.76  639.57  4.62
2206.0  13790.00  632.52  4.59
2216.0  13655.61  636.43  4.66
2226.0  13540.23  615.81  4.55
2236.0  13404.39  562.57  4.20
2246.0  13162.51  561.92  4.27
2256.0  12980.74  512.05  3.94
2266.0  12834.46  487.21  3.80
2276.0  12713.52  448.06  3.52
2286.0  12602.64  413.98  3.28
2296.0  12501.79  392.63  3.14
2306.0  12136.32  364.56  3.00
2316.0  11736.06  335.25  2.86
2326.0  11720.29  338.89  2.89
2336.0  11665.36  325.13  2.79
2346.0  11501.61  304.56  2.65
2356.0  11241.81  296.94  2.64
2366.0  11163.72  283.08  2.54
2376.0  10906.36  267.88  2.46
2386.0  10752.86  257.27  2.39
2396.0  10611.07  249.74  2.35
2406.0  10442.46  239.15  2.29
2416.0  10196.59  220.11  2.16
2426.0  10071.76  193.32  1.92
2436.0  9871.11  192.60  1.95
2446.0  9707.92  165.03  1.70
2456.0  9553.15  175.91  1.84
2466.0  9291.20  138.21  1.49
2476.0  9038.48  131.73  1.46
2486.0  8794.17  130.71  1.49
2496.0  8663.70  156.80  1.81
2506.0  9144.96  112.79  1.23
