/*** Spectra Vista SIG Data ***/
name= GB.sig
comm= Resampled spectral data SIG file reprocesed for matching/overlap;Averaged Ref/Tar of files: GD2B1,GD2B2,GD2B3
data=
346.0  509.60  167.21  32.81
356.0  828.71  193.32  23.33
366.0  1135.02  221.34  19.50
376.0  1579.37  240.43  15.22
386.0  1995.77  242.71  12.16
396.0  2559.82  307.89  12.03
406.0  3091.33  320.36  10.36
416.0  3756.05  405.98  10.81
426.0  4330.84  447.77  10.34
436.0  5235.06  524.43  10.02
446.0  6088.18  654.56  10.75
456.0  6942.22  820.80  11.82
466.0  8223.74  1030.82  12.53
476.0  9370.48  1226.92  13.09
486.0  10269.91  1390.25  13.54
496.0  11746.45  1866.52  15.89
506.0  13053.58  2732.33  20.93
516.0  13946.28  3943.49  28.28
526.0  15576.79  5621.17  36.09
536.0  17486.02  7249.34  41.46
546.0  19041.40  8461.72  44.44
556.0  19524.52  8828.17  45.22
566.0  20999.31  9268.59  44.14
576.0  23067.50  9581.57  41.54
586.0  24676.47  9664.28  39.16
596.0  26082.33  9809.44  37.61
606.0  26687.61  9623.55  36.06
616.0  28173.19  9496.09  33.71
626.0  30688.38  9903.46  32.27
636.0  30262.72  9820.42  32.45
646.0  30879.36  8641.33  27.98
656.0  30774.24  6914.25  22.47
666.0  32506.69  5951.95  18.31
676.0  34219.05  5651.36  16.52
686.0  36429.62  8149.19  22.37
696.0  37023.78  15921.37  43.00
706.0  37160.43  23476.15  63.18
716.0  36697.84  27605.46  75.22
726.0  35913.80  29393.91  81.85
736.0  35729.66  29982.58  83.92
746.0  37736.85  32324.62  85.66
756.0  38321.00  33410.89  87.19
766.0  39510.69  34910.15  88.36
776.0  40059.59  35893.42  89.60
786.0  40131.74  36234.43  90.29
796.0  39280.82  35948.74  91.52
806.0  38244.14  35228.35  92.11
816.0  38036.29  35239.88  92.65
826.0  37709.30  34909.23  92.57
836.0  38038.49  34920.50  91.80
846.0  38692.27  35677.29  92.21
856.0  39178.52  36424.00  92.97
866.0  39402.80  36640.06  92.99
876.0  39579.78  36578.94  92.42
886.0  39738.64  36450.38  91.73
896.0  39527.49  35676.00  90.26
906.0  39437.50  35125.39  89.07
916.0  39115.31  34152.48  87.31
926.0  39024.38  32837.67  84.15
936.0  39929.50  31776.19  79.58
946.0  40662.60  30287.65  74.49
956.0  41393.84  28298.03  68.36
966.0  41958.59  27681.88  65.97
976.0  42665.70  28000.44  65.63
986.0  43514.08  27495.97  63.19
996.0  44198.08  28365.51  64.18
1006.0  44152.39  29263.28  66.28
1016.0  44379.04  30648.68  69.06
1026.0  44401.68  31935.93  71.93
1036.0  44210.66  33040.62  74.73
1046.0  44505.96  34444.08  77.39
1056.0  44664.21  35486.04  79.45
1066.0  44609.35  35990.99  80.68
1076.0  44397.60  35957.63  80.99
1086.0  44469.15  35724.40  80.34
1096.0  44486.78  35058.84  78.81
1106.0  44367.02  34133.19  76.93
1116.0  44078.91  32947.83  74.75
1126.0  43954.95  31261.69  71.12
1136.0  43902.29  28216.01  64.27
1146.0  43783.94  24767.16  56.57
1156.0  43564.50  22641.90  51.97
1166.0  43347.15  21822.91  50.34
1176.0  43236.47  21503.24  49.73
1186.0  43266.58  21301.01  49.23
1196.0  42749.21  20919.84  48.94
1206.0  42347.95  20770.61  49.05
1216.0  42062.65  20841.56  49.55
1226.0  41760.57  21014.16  50.32
1236.0  41549.33  21208.08  51.04
1246.0  41291.98  21312.47  51.61
1256.0  41002.94  21358.18  52.09
1266.0  40714.26  21271.90  52.25
1276.0  40752.77  21189.62  52.00
1286.0  40729.17  20904.78  51.33
1296.0  40419.20  20239.55  50.07
1306.0  39889.01  19203.49  48.14
1316.0  39301.71  17935.90  45.64
1326.0  38739.73  16544.14  42.71
1336.0  38152.03  15182.62  39.80
1346.0  37634.91  13973.32  37.13
1356.0  36932.28  12849.92  34.79
1366.0  36373.67  11915.67  32.76
1376.0  36238.22  10780.76  29.75
1386.0  35907.93  9130.79  25.43
1396.0  35482.45  7475.27  21.07
1406.0  35048.23  6323.92  18.04
1416.0  34958.68  5702.75  16.31
1426.0  34812.11  5386.85  15.47
1436.0  34651.53  5242.02  15.13
1446.0  34455.26  5165.05  14.99
1456.0  34203.50  5132.12  15.00
1466.0  34017.99  5175.82  15.21
1476.0  33677.47  5282.88  15.69
1486.0  33445.44  5509.32  16.47
1496.0  33136.51  5786.11  17.46
1506.0  32878.23  5948.39  18.09
1516.0  32532.33  6096.64  18.74
1526.0  32200.64  6248.54  19.41
1536.0  31935.91  6445.28  20.18
1546.0  31612.44  6634.62  20.99
1556.0  31368.42  6819.79  21.74
1566.0  31082.67  7016.64  22.57
1576.0  30694.72  7193.57  23.44
1586.0  30400.45  7322.18  24.09
1596.0  30038.76  7395.04  24.62
1606.0  29713.74  7474.79  25.16
1616.0  29361.62  7533.73  25.66
1626.0  29041.80  7597.44  26.16
1636.0  28665.08  7613.32  26.56
1646.0  28273.39  7597.47  26.87
1656.0  27876.35  7544.39  27.06
1666.0  27464.92  7459.88  27.16
1676.0  27087.15  7351.82  27.14
1686.0  27082.21  7273.21  26.86
1696.0  26749.12  7096.41  26.53
1706.0  26324.28  6860.99  26.06
1716.0  25713.57  6544.24  25.45
1726.0  25342.79  6277.33  24.77
1736.0  25046.96  6113.86  24.41
1746.0  24724.28  5940.62  24.03
1756.0  24256.84  5689.03  23.45
1766.0  23870.66  5491.12  23.00
1776.0  23641.10  5374.13  22.73
1786.0  23371.07  5255.49  22.49
1796.0  23059.77  5163.04  22.39
1806.0  22801.89  5095.33  22.35
1816.0  22515.30  5018.11  22.29
1826.0  22114.90  4917.50  22.24
1836.0  21613.42  4752.15  21.99
1846.0  21215.40  4631.04  21.83
1856.0  20774.86  4433.63  21.34
1866.0  20736.29  4047.58  19.52
1876.0  20407.50  3426.52  16.79
1886.0  20155.03  2887.97  14.33
1896.0  19660.33  2553.56  12.99
1906.0  18631.25  1562.65  8.39
1916.0  18318.88  1533.09  8.37
1926.0  18038.46  1511.93  8.38
1936.0  17863.51  1511.47  8.46
1946.0  17797.41  1534.62  8.62
1956.0  17592.99  1561.17  8.87
1966.0  17571.94  1604.08  9.13
1976.0  17404.06  1639.48  9.42
1986.0  17183.68  1660.89  9.67
1996.0  16906.31  1694.48  10.02
2006.0  16756.31  1741.39  10.39
2016.0  16485.40  1760.02  10.68
2026.0  16206.02  1782.49  11.00
2036.0  15962.47  1810.03  11.34
2046.0  15735.40  1829.04  11.62
2056.0  15460.05  1840.55  11.91
2066.0  15198.46  1836.43  12.08
2076.0  14951.14  1855.58  12.41
2086.0  14836.37  1893.90  12.77
2096.0  14558.23  1891.25  12.99
2106.0  14302.47  1893.80  13.24
2116.0  14222.98  1942.21  13.66
2126.0  14069.19  1963.69  13.96
2136.0  13798.40  1952.38  14.15
2146.0  13445.76  1938.22  14.42
2156.0  13239.56  1921.52  14.51
2166.0  12983.56  1910.32  14.71
2176.0  12771.15  1905.12  14.92
2186.0  12627.18  1886.16  14.94
2196.0  12513.18  1879.91  15.02
2206.0  12456.23  1889.55  15.17
2216.0  12351.60  1877.08  15.20
2226.0  12205.08  1823.09  14.94
2236.0  12132.89  1795.57  14.80
2246.0  11882.62  1722.26  14.49
2256.0  11773.90  1662.62  14.12
2266.0  11670.88  1589.65  13.62
2276.0  11528.71  1555.63  13.49
2286.0  11463.55  1514.01  13.21
2296.0  11358.16  1437.53  12.66
2306.0  11039.70  1358.61  12.31
2316.0  10655.77  1304.03  12.24
2326.0  10608.43  1302.86  12.28
2336.0  10592.93  1268.25  11.97
2346.0  10498.36  1230.63  11.72
2356.0  10259.04  1165.74  11.36
2366.0  10158.26  1169.07  11.51
2376.0  9929.58  1124.51  11.32
2386.0  9815.44  1082.84  11.03
2396.0  9663.63  1039.26  10.75
2406.0  9510.88  1005.65  10.57
2416.0  9304.41  984.61  10.58
2426.0  9217.28  938.07  10.18
2436.0  8983.54  889.27  9.90
2446.0  8817.11  866.39  9.83
2456.0  8689.94  849.38  9.77
2466.0  8452.21  786.72  9.31
2476.0  8254.64  759.93  9.21
2486.0  8114.28  729.36  8.99
2496.0  7981.99  711.05  8.91
2506.0  8320.96  765.60  9.20
