/*** Spectra Vista SIG Data ***/
name= GS.sig
comm= Resampled spectral data SIG file reprocesed for matching/overlap;Averaged Ref/Tar of files: GD2S7,GD2S8,GD2S9
data=
346.0  509.60  198.00  38.85
356.0  828.71  230.59  27.83
366.0  1135.02  250.97  22.11
376.0  1579.37  278.89  17.66
386.0  1995.77  284.64  14.26
396.0  2559.82  373.13  14.58
406.0  3091.33  400.64  12.96
416.0  3756.05  500.45  13.32
426.0  4330.84  555.22  12.82
436.0  5235.06  657.69  12.56
446.0  6088.18  824.83  13.55
456.0  6942.22  1026.75  14.79
466.0  8223.74  1282.47  15.59
476.0  9370.48  1510.44  16.12
486.0  10269.91  1721.52  16.76
496.0  11746.45  2300.57  19.59
506.0  13053.58  3295.00  25.24
516.0  13946.28  4621.73  33.14
526.0  15576.79  6473.29  41.56
536.0  17486.02  8270.08  47.30
546.0  19041.40  9567.64  50.25
556.0  19524.52  9894.68  50.68
566.0  20999.31  10327.13  49.18
576.0  23067.50  10633.43  46.10
586.0  24676.47  10724.30  43.46
596.0  26082.33  10822.58  41.49
606.0  26687.61  10559.10  39.57
616.0  28173.19  10430.27  37.02
626.0  30688.38  11025.83  35.93
636.0  30262.72  10264.54  33.92
646.0  30879.36  9613.81  31.13
656.0  30774.24  8093.74  26.30
666.0  32506.69  6806.23  20.94
676.0  34219.05  6545.64  19.13
686.0  36429.62  9221.73  25.31
696.0  37023.78  17367.40  46.91
706.0  37160.43  25529.20  68.70
716.0  36697.84  30152.60  82.16
726.0  35913.80  32239.58  89.77
736.0  35729.66  33233.44  93.01
746.0  37736.85  36239.42  96.03
756.0  38321.00  37243.29  97.19
766.0  39510.69  39273.66  99.40
776.0  40059.59  40421.74  100.90
786.0  40131.74  40967.79  102.08
796.0  39280.82  40081.98  102.04
806.0  38244.14  39194.94  102.49
816.0  38036.29  39254.46  103.20
826.0  37709.30  38923.37  103.22
836.0  38038.49  39260.61  103.21
846.0  38692.27  40426.48  104.48
856.0  39178.52  41170.00  105.08
866.0  39402.80  41513.74  105.36
876.0  39579.78  41543.72  104.96
886.0  39738.64  41360.50  104.08
896.0  39527.49  40526.31  102.53
906.0  39437.50  40033.61  101.51
916.0  39115.31  39135.99  100.05
926.0  39024.38  38068.05  97.55
936.0  39929.50  37511.14  93.94
946.0  40662.60  36610.85  90.04
956.0  41393.84  35195.66  85.03
966.0  41958.59  34874.49  83.12
976.0  42665.70  35348.38  82.85
986.0  43514.08  33890.63  77.88
996.0  44198.08  35038.09  79.28
1006.0  44152.39  35835.76  81.16
1016.0  44379.04  37104.03  83.61
1026.0  44401.68  38191.92  86.01
1036.0  44210.66  38986.94  88.18
1046.0  44505.96  40242.04  90.42
1056.0  44664.21  41209.33  92.26
1066.0  44609.35  41633.37  93.33
1076.0  44397.60  41556.00  93.60
1086.0  44469.15  41412.85  93.13
1096.0  44486.78  40898.18  91.93
1106.0  44367.02  40134.60  90.46
1116.0  44078.91  39073.75  88.65
1126.0  43954.95  37577.82  85.49
1136.0  43902.29  34853.81  79.39
1146.0  43783.94  31608.91  72.19
1156.0  43564.50  29526.09  67.78
1166.0  43347.15  28726.50  66.27
1176.0  43236.47  28407.99  65.70
1186.0  43266.58  28187.19  65.15
1196.0  42749.21  27693.75  64.78
1206.0  42347.95  27475.93  64.88
1216.0  42062.65  27520.29  65.43
1226.0  41760.57  27678.00  66.28
1236.0  41549.33  27875.24  67.09
1246.0  41291.98  27984.26  67.77
1256.0  41002.94  27997.25  68.28
1266.0  40714.26  27861.18  68.43
1276.0  40752.77  27818.06  68.26
1286.0  40729.17  27511.39  67.55
1296.0  40419.20  26771.96  66.24
1306.0  39889.01  25610.96  64.21
1316.0  39301.71  24159.68  61.47
1326.0  38739.73  22546.83  58.20
1336.0  38152.03  20916.41  54.82
1346.0  37634.91  19420.40  51.60
1356.0  36932.28  17969.89  48.66
1366.0  36373.67  16735.17  46.01
1376.0  36238.22  15264.22  42.12
1386.0  35907.93  12953.39  36.07
1396.0  35482.45  10587.59  29.84
1406.0  35048.23  8862.78  25.29
1416.0  34958.68  7929.44  22.68
1426.0  34812.11  7472.63  21.47
1436.0  34651.53  7236.57  20.88
1446.0  34455.26  7127.52  20.69
1456.0  34203.50  7097.68  20.75
1466.0  34017.99  7172.87  21.09
1476.0  33677.47  7370.25  21.88
1486.0  33445.44  7718.16  23.08
1496.0  33136.51  8131.22  24.54
1506.0  32878.23  8450.07  25.70
1516.0  32532.33  8617.73  26.49
1526.0  32200.64  8886.68  27.60
1536.0  31935.91  9345.53  29.26
1546.0  31612.44  9645.24  30.51
1556.0  31368.42  9926.60  31.65
1566.0  31082.67  10171.61  32.72
1576.0  30694.72  10429.06  33.98
1586.0  30400.45  10611.88  34.91
1596.0  30038.76  10731.19  35.72
1606.0  29713.74  10837.34  36.47
1616.0  29361.62  10931.96  37.23
1626.0  29041.80  11019.32  37.94
1636.0  28665.08  11042.72  38.52
1646.0  28273.39  10978.46  38.83
1656.0  27876.35  10858.67  38.95
1666.0  27464.92  10742.86  39.11
1676.0  27087.15  10599.01  39.13
1686.0  27082.21  10501.05  38.77
1696.0  26749.12  10234.29  38.26
1706.0  26324.28  9896.19  37.59
1716.0  25713.57  9442.11  36.72
1726.0  25342.79  9081.04  35.83
1736.0  25046.96  8845.25  35.31
1746.0  24724.28  8598.72  34.78
1756.0  24256.84  8235.86  33.95
1766.0  23870.66  7939.58  33.26
1776.0  23641.10  7779.92  32.91
1786.0  23371.07  7623.14  32.62
1796.0  23059.77  7493.21  32.49
1806.0  22801.89  7408.79  32.49
1816.0  22515.30  7300.61  32.43
1826.0  22114.90  7159.30  32.37
1836.0  21613.42  6939.40  32.11
1846.0  21215.40  6803.03  32.07
1856.0  20774.86  6575.08  31.65
1866.0  20736.29  5828.30  28.11
1876.0  20407.50  4750.21  23.28
1886.0  20155.03  3872.06  19.21
1896.0  19660.33  3310.08  16.84
1906.0  18631.25  2102.05  11.28
1916.0  18318.88  2002.40  10.93
1926.0  18038.46  1973.88  10.94
1936.0  17863.51  1976.04  11.06
1946.0  17797.41  2035.75  11.44
1956.0  17592.99  2099.58  11.93
1966.0  17571.94  2190.54  12.47
1976.0  17404.06  2267.68  13.03
1986.0  17183.68  2332.54  13.57
1996.0  16906.31  2423.61  14.34
2006.0  16756.31  2517.70  15.03
2016.0  16485.40  2589.41  15.71
2026.0  16206.02  2649.19  16.35
2036.0  15962.47  2704.72  16.94
2046.0  15735.40  2753.22  17.50
2056.0  15460.05  2791.13  18.05
2066.0  15198.46  2824.17  18.58
2076.0  14951.14  2871.78  19.21
2086.0  14836.37  2933.60  19.77
2096.0  14558.23  2952.35  20.28
2106.0  14302.47  2970.78  20.77
2116.0  14222.98  3045.06  21.41
2126.0  14069.19  3077.86  21.88
2136.0  13798.40  3092.14  22.41
2146.0  13445.76  3059.38  22.75
2156.0  13239.56  3044.82  23.00
2166.0  12983.56  3031.69  23.35
2176.0  12771.15  3010.90  23.58
2186.0  12627.18  2991.04  23.69
2196.0  12513.18  2967.79  23.72
2206.0  12456.23  2979.89  23.92
2216.0  12351.60  2935.41  23.77
2226.0  12205.08  2872.01  23.53
2236.0  12132.89  2794.15  23.03
2246.0  11882.62  2682.91  22.58
2256.0  11773.90  2573.42  21.86
2266.0  11670.88  2474.26  21.20
2276.0  11528.71  2371.33  20.57
2286.0  11463.55  2288.66  19.96
2296.0  11358.16  2141.96  18.86
2306.0  11039.70  1994.79  18.07
2316.0  10655.77  1929.88  18.11
2326.0  10608.43  1949.55  18.38
2336.0  10592.93  1876.32  17.71
2346.0  10498.36  1772.15  16.88
2356.0  10259.04  1695.46  16.53
2366.0  10158.26  1667.92  16.42
2376.0  9929.58  1598.40  16.10
2386.0  9815.44  1494.81  15.23
2396.0  9663.63  1450.37  15.01
2406.0  9510.88  1372.28  14.43
2416.0  9304.41  1355.72  14.57
2426.0  9217.28  1274.24  13.82
2436.0  8983.54  1215.48  13.53
2446.0  8817.11  1143.00  12.96
2456.0  8689.94  1105.42  12.72
2466.0  8452.21  1039.72  12.30
2476.0  8254.64  989.09  11.98
2486.0  8114.28  951.81  11.73
2496.0  7981.99  943.03  11.81
2506.0  8320.96  928.95  11.16
