/*** Spectra Vista SIG Data ***/
name= RS.sig
comm= Resampled spectral data SIG file reprocesed for matching/overlap;Averaged Ref/Tar of files: RD2S7,RD2S8,RD2S9
data=
346.0  509.60  128.78  25.27
356.0  828.71  153.27  18.49
366.0  1135.02  170.11  14.99
376.0  1579.37  176.12  11.15
386.0  1995.77  175.93  8.82
396.0  2559.82  212.54  8.30
406.0  3091.33  199.38  6.45
416.0  3756.05  236.15  6.29
426.0  4330.84  245.19  5.66
436.0  5235.06  275.87  5.27
446.0  6088.18  317.35  5.21
456.0  6942.22  340.82  4.91
466.0  8223.74  406.59  4.94
476.0  9370.48  455.35  4.86
486.0  10269.91  483.01  4.70
496.0  11746.45  563.65  4.80
506.0  13053.58  635.72  4.87
516.0  13946.28  660.30  4.73
526.0  15576.79  727.61  4.67
536.0  17486.02  833.06  4.76
546.0  19041.40  919.09  4.83
556.0  19524.52  927.96  4.75
566.0  20999.31  1000.37  4.76
576.0  23067.50  1154.64  5.01
586.0  24676.47  1377.06  5.58
596.0  26082.33  1651.59  6.33
606.0  26687.61  2068.26  7.75
616.0  28173.19  2868.42  10.18
626.0  30688.38  3956.72  12.89
636.0  30262.72  5118.04  16.91
646.0  30879.36  6002.02  19.44
656.0  30774.24  6231.62  20.25
666.0  32506.69  5848.40  17.99
676.0  34219.05  5887.56  17.21
686.0  36429.62  8985.55  24.67
696.0  37023.78  16416.57  44.34
706.0  37160.43  21962.49  59.10
716.0  36697.84  24601.29  67.04
726.0  35913.80  25608.46  71.31
736.0  35729.66  26041.85  72.89
746.0  37736.85  28325.14  75.06
756.0  38321.00  29195.01  76.19
766.0  39510.69  30903.20  78.21
776.0  40059.59  31851.27  79.51
786.0  40131.74  32271.46  80.41
796.0  39280.82  31449.54  80.06
806.0  38244.14  30676.76  80.21
816.0  38036.29  30665.38  80.62
826.0  37709.30  30286.25  80.32
836.0  38038.49  30458.08  80.07
846.0  38692.27  31383.37  81.11
856.0  39178.52  31865.14  81.33
866.0  39402.80  32079.21  81.41
876.0  39579.78  32056.06  80.99
886.0  39738.64  31705.90  79.79
896.0  39527.49  30914.72  78.21
906.0  39437.50  30381.34  77.04
916.0  39115.31  29545.84  75.54
926.0  39024.38  28515.82  73.07
936.0  39929.50  27855.89  69.76
946.0  40662.60  26958.77  66.30
956.0  41393.84  25593.82  61.83
966.0  41958.59  25190.00  60.04
976.0  42665.70  25187.86  59.04
986.0  43514.08  24968.76  57.38
996.0  44198.08  25628.94  57.99
1006.0  44152.39  26230.57  59.41
1016.0  44379.04  27250.97  61.41
1026.0  44401.68  28109.34  63.31
1036.0  44210.66  28797.58  65.14
1046.0  44505.96  29842.25  67.05
1056.0  44664.21  30663.34  68.65
1066.0  44609.35  31038.42  69.58
1076.0  44397.60  31003.66  69.83
1086.0  44469.15  30878.84  69.44
1096.0  44486.78  30434.63  68.41
1106.0  44367.02  29831.46  67.24
1116.0  44078.91  28948.47  65.67
1126.0  43954.95  27680.45  62.97
1136.0  43902.29  25388.24  57.83
1146.0  43783.94  22671.13  51.78
1156.0  43564.50  20986.92  48.17
1166.0  43347.15  20315.13  46.87
1176.0  43236.47  20009.58  46.28
1186.0  43266.58  19803.45  45.77
1196.0  42749.21  19419.12  45.43
1206.0  42347.95  19269.93  45.50
1216.0  42062.65  19367.39  46.04
1226.0  41760.57  19546.34  46.81
1236.0  41549.33  19740.72  47.51
1246.0  41291.98  19851.50  48.08
1256.0  41002.94  19888.61  48.51
1266.0  40714.26  19842.72  48.74
1276.0  40752.77  19806.30  48.60
1286.0  40729.17  19580.71  48.08
1296.0  40419.20  19038.17  47.10
1306.0  39889.01  18137.77  45.47
1316.0  39301.71  17029.97  43.33
1326.0  38739.73  15752.17  40.66
1336.0  38152.03  14449.60  37.87
1346.0  37634.91  13301.79  35.34
1356.0  36932.28  12228.36  33.11
1366.0  36373.67  11261.57  30.96
1376.0  36238.22  10107.67  27.89
1386.0  35907.93  8262.03  23.01
1396.0  35482.45  6411.24  18.07
1406.0  35048.23  5150.72  14.70
1416.0  34958.68  4493.17  12.85
1426.0  34812.11  4179.61  12.01
1436.0  34651.53  4023.71  11.61
1446.0  34455.26  3961.02  11.50
1456.0  34203.50  3932.42  11.50
1466.0  34017.99  3982.44  11.71
1476.0  33677.47  4099.91  12.17
1486.0  33445.44  4332.20  12.95
1496.0  33136.51  4619.92  13.94
1506.0  32878.23  4761.44  14.48
1516.0  32532.33  4917.01  15.11
1526.0  32200.64  5180.26  16.09
1536.0  31935.91  5421.82  16.98
1546.0  31612.44  5649.19  17.87
1556.0  31368.42  5857.68  18.67
1566.0  31082.67  6046.38  19.45
1576.0  30694.72  6247.61  20.35
1586.0  30400.45  6394.13  21.03
1596.0  30038.76  6496.77  21.63
1606.0  29713.74  6606.91  22.24
1616.0  29361.62  6703.31  22.83
1626.0  29041.80  6790.43  23.38
1636.0  28665.08  6837.13  23.85
1646.0  28273.39  6810.59  24.09
1656.0  27876.35  6736.84  24.17
1666.0  27464.92  6648.27  24.21
1676.0  27087.15  6548.76  24.18
1686.0  27082.21  6482.40  23.94
1696.0  26749.12  6320.01  23.63
1706.0  26324.28  6100.16  23.17
1716.0  25713.57  5800.53  22.56
1726.0  25342.79  5567.15  21.97
1736.0  25046.96  5414.17  21.62
1746.0  24724.28  5242.16  21.20
1756.0  24256.84  5001.45  20.62
1766.0  23870.66  4809.91  20.15
1776.0  23641.10  4715.53  19.95
1786.0  23371.07  4618.58  19.76
1796.0  23059.77  4553.65  19.75
1806.0  22801.89  4516.90  19.81
1816.0  22515.30  4469.38  19.85
1826.0  22114.90  4394.37  19.87
1836.0  21613.42  4278.00  19.79
1846.0  21215.40  4199.27  19.79
1856.0  20774.86  4054.07  19.51
1866.0  20736.29  3564.84  17.19
1876.0  20407.50  2803.62  13.74
1886.0  20155.03  2324.26  11.53
1896.0  19660.33  2070.10  10.53
1906.0  18631.25  1409.37  7.56
1916.0  18318.88  1332.87  7.28
1926.0  18038.46  1283.09  7.11
1936.0  17863.51  1271.23  7.12
1946.0  17797.41  1278.10  7.18
1956.0  17592.99  1280.08  7.28
1966.0  17571.94  1303.32  7.42
1976.0  17404.06  1336.38  7.68
1986.0  17183.68  1357.87  7.90
1996.0  16906.31  1385.84  8.20
2006.0  16756.31  1415.23  8.45
2016.0  16485.40  1441.18  8.74
2026.0  16206.02  1449.81  8.95
2036.0  15962.47  1468.96  9.20
2046.0  15735.40  1480.68  9.41
2056.0  15460.05  1482.20  9.59
2066.0  15198.46  1497.81  9.86
2076.0  14951.14  1518.79  10.16
2086.0  14836.37  1535.48  10.35
2096.0  14558.23  1545.94  10.62
2106.0  14302.47  1552.24  10.85
2116.0  14222.98  1584.15  11.14
2126.0  14069.19  1612.32  11.46
2136.0  13798.40  1612.26  11.68
2146.0  13445.76  1600.03  11.90
2156.0  13239.56  1610.55  12.16
2166.0  12983.56  1583.82  12.20
2176.0  12771.15  1581.12  12.38
2186.0  12627.18  1587.02  12.57
2196.0  12513.18  1568.99  12.54
2206.0  12456.23  1589.34  12.76
2216.0  12351.60  1585.16  12.83
2226.0  12205.08  1534.08  12.57
2236.0  12132.89  1496.23  12.33
2246.0  11882.62  1444.70  12.16
2256.0  11773.90  1389.83  11.80
2266.0  11670.88  1326.12  11.36
2276.0  11528.71  1277.20  11.08
2286.0  11463.55  1235.28  10.78
2296.0  11358.16  1184.47  10.43
2306.0  11039.70  1105.44  10.01
2316.0  10655.77  1074.16  10.08
2326.0  10608.43  1081.14  10.19
2336.0  10592.93  1043.98  9.86
2346.0  10498.36  1007.85  9.60
2356.0  10259.04  974.18  9.50
2366.0  10158.26  948.22  9.33
2376.0  9929.58  918.41  9.25
2386.0  9815.44  883.07  9.00
2396.0  9663.63  872.71  9.03
2406.0  9510.88  821.72  8.64
2416.0  9304.41  809.51  8.70
2426.0  9217.28  790.06  8.57
2436.0  8983.54  774.66  8.62
2446.0  8817.11  740.10  8.39
2456.0  8689.94  737.46  8.49
2466.0  8452.21  689.24  8.15
2476.0  8254.64  677.89  8.21
2486.0  8114.28  639.56  7.88
2496.0  7981.99  635.27  7.96
2506.0  8320.96  649.40  7.80
