/*** Spectra Vista SIG Data ***/
name= RS.sig
comm= Resampled spectral data SIG file reprocesed for matching/overlap;Averaged Ref/Tar of files: RD2S13,RD2S14,RD2S15
data=
346.0  509.60  145.03  28.46
356.0  828.71  169.83  20.49
366.0  1135.02  183.22  16.14
376.0  1579.37  193.16  12.23
386.0  1995.77  187.90  9.41
396.0  2559.82  232.03  9.06
406.0  3091.33  218.82  7.08
416.0  3756.05  259.75  6.92
426.0  4330.84  273.71  6.32
436.0  5235.06  299.20  5.72
446.0  6088.18  348.95  5.73
456.0  6942.22  376.38  5.42
466.0  8223.74  447.96  5.45
476.0  9370.48  504.92  5.39
486.0  10269.91  525.19  5.11
496.0  11746.45  609.82  5.19
506.0  13053.58  690.24  5.29
516.0  13946.28  720.84  5.17
526.0  15576.79  796.79  5.12
536.0  17486.02  916.60  5.24
546.0  19041.40  1031.51  5.42
556.0  19524.52  1081.07  5.54
566.0  20999.31  1257.43  5.99
576.0  23067.50  1627.74  7.06
586.0  24676.47  2196.41  8.90
596.0  26082.33  2954.52  11.33
606.0  26687.61  3844.98  14.41
616.0  28173.19  5072.27  18.00
626.0  30688.38  6600.85  21.51
636.0  30262.72  7533.86  24.89
646.0  30879.36  7797.36  25.25
656.0  30774.24  7499.45  24.37
666.0  32506.69  6588.09  20.27
676.0  34219.05  6338.12  18.52
686.0  36429.62  9598.62  26.35
696.0  37023.78  18068.02  48.80
706.0  37160.43  24383.64  65.62
716.0  36697.84  27149.60  73.98
726.0  35913.80  27965.31  77.87
736.0  35729.66  28131.03  78.73
746.0  37736.85  30319.80  80.35
756.0  38321.00  31047.34  81.02
766.0  39510.69  32677.30  82.70
776.0  40059.59  33565.84  83.79
786.0  40131.74  33920.35  84.52
796.0  39280.82  33012.61  84.04
806.0  38244.14  32161.07  84.09
816.0  38036.29  32089.53  84.37
826.0  37709.30  31654.33  83.94
836.0  38038.49  31740.99  83.44
846.0  38692.27  32646.23  84.37
856.0  39178.52  33132.43  84.57
866.0  39402.80  33335.98  84.60
876.0  39579.78  33245.41  84.00
886.0  39738.64  32858.64  82.69
896.0  39527.49  31993.99  80.94
906.0  39437.50  31415.42  79.66
916.0  39115.31  30481.08  77.93
926.0  39024.38  29343.49  75.19
936.0  39929.50  28519.21  71.42
946.0  40662.60  27418.59  67.43
956.0  41393.84  25861.79  62.48
966.0  41958.59  25333.74  60.38
976.0  42665.70  25556.17  59.90
986.0  43514.08  25386.83  58.34
996.0  44198.08  26148.77  59.16
1006.0  44152.39  26830.88  60.77
1016.0  44379.04  27967.77  63.02
1026.0  44401.68  28949.14  65.20
1036.0  44210.66  29734.04  67.26
1046.0  44505.96  30863.32  69.35
1056.0  44664.21  31740.44  71.06
1066.0  44609.35  32142.03  72.05
1076.0  44397.60  32092.29  72.28
1086.0  44469.15  31906.77  71.75
1096.0  44486.78  31385.50  70.55
1106.0  44367.02  30667.38  69.12
1116.0  44078.91  29685.96  67.35
1126.0  43954.95  28251.82  64.27
1136.0  43902.29  25668.52  58.47
1146.0  43783.94  22668.08  51.77
1156.0  43564.50  20820.21  47.79
1166.0  43347.15  20119.35  46.41
1176.0  43236.47  19819.22  45.84
1186.0  43266.58  19618.05  45.34
1196.0  42749.21  19228.49  44.98
1206.0  42347.95  19092.10  45.08
1216.0  42062.65  19181.07  45.60
1226.0  41760.57  19357.08  46.35
1236.0  41549.33  19542.04  47.03
1246.0  41291.98  19661.01  47.61
1256.0  41002.94  19692.11  48.03
1266.0  40714.26  19632.67  48.22
1276.0  40752.77  19571.29  48.02
1286.0  40729.17  19308.90  47.41
1296.0  40419.20  18707.44  46.28
1306.0  39889.01  17747.40  44.49
1316.0  39301.71  16570.32  42.16
1326.0  38739.73  15240.46  39.34
1336.0  38152.03  13909.03  36.46
1346.0  37634.91  12731.35  33.83
1356.0  36932.28  11646.58  31.53
1366.0  36373.67  10691.98  29.39
1376.0  36238.22  9540.14  26.33
1386.0  35907.93  7760.27  21.61
1396.0  35482.45  6008.02  16.93
1406.0  35048.23  4820.51  13.75
1416.0  34958.68  4206.47  12.03
1426.0  34812.11  3911.32  11.24
1436.0  34651.53  3772.50  10.89
1446.0  34455.26  3712.73  10.78
1456.0  34203.50  3682.50  10.77
1466.0  34017.99  3723.42  10.95
1476.0  33677.47  3843.11  11.41
1486.0  33445.44  4065.56  12.16
1496.0  33136.51  4346.02  13.12
1506.0  32878.23  4508.58  13.71
1516.0  32532.33  4621.31  14.21
1526.0  32200.64  4817.56  14.96
1536.0  31935.91  5072.76  15.88
1546.0  31612.44  5303.11  16.78
1556.0  31368.42  5500.31  17.53
1566.0  31082.67  5677.90  18.27
1576.0  30694.72  5877.92  19.15
1586.0  30400.45  6015.56  19.79
1596.0  30038.76  6110.94  20.34
1606.0  29713.74  6207.60  20.89
1616.0  29361.62  6296.53  21.44
1626.0  29041.80  6387.70  21.99
1636.0  28665.08  6431.55  22.44
1646.0  28273.39  6412.87  22.68
1656.0  27876.35  6356.60  22.80
1666.0  27464.92  6288.47  22.90
1676.0  27087.15  6200.70  22.89
1686.0  27082.21  6138.17  22.66
1696.0  26749.12  5985.84  22.38
1706.0  26324.28  5770.01  21.92
1716.0  25713.57  5478.75  21.31
1726.0  25342.79  5243.14  20.69
1736.0  25046.96  5087.54  20.31
1746.0  24724.28  4913.27  19.87
1756.0  24256.84  4672.90  19.26
1766.0  23870.66  4480.71  18.77
1776.0  23641.10  4376.43  18.51
1786.0  23371.07  4272.21  18.28
1796.0  23059.77  4200.91  18.22
1806.0  22801.89  4158.50  18.24
1816.0  22515.30  4103.94  18.23
1826.0  22114.90  4031.31  18.23
1836.0  21613.42  3902.96  18.06
1846.0  21215.40  3802.80  17.92
1856.0  20774.86  3628.26  17.46
1866.0  20736.29  3184.42  15.36
1876.0  20407.50  2504.54  12.27
1886.0  20155.03  2021.40  10.03
1896.0  19660.33  1777.17  9.04
1906.0  18631.25  1175.82  6.31
1916.0  18318.88  1103.96  6.03
1926.0  18038.46  1102.41  6.11
1936.0  17863.51  1085.38  6.08
1946.0  17797.41  1092.50  6.14
1956.0  17592.99  1100.81  6.26
1966.0  17571.94  1134.20  6.45
1976.0  17404.06  1153.99  6.63
1986.0  17183.68  1187.01  6.91
1996.0  16906.31  1213.44  7.18
2006.0  16756.31  1247.99  7.45
2016.0  16485.40  1260.72  7.65
2026.0  16206.02  1275.89  7.87
2036.0  15962.47  1297.93  8.13
2046.0  15735.40  1316.59  8.37
2056.0  15460.05  1328.85  8.60
2066.0  15198.46  1326.42  8.73
2076.0  14951.14  1348.89  9.02
2086.0  14836.37  1374.87  9.27
2096.0  14558.23  1391.05  9.56
2106.0  14302.47  1404.95  9.82
2116.0  14222.98  1419.67  9.98
2126.0  14069.19  1443.61  10.26
2136.0  13798.40  1443.99  10.46
2146.0  13445.76  1439.38  10.71
2156.0  13239.56  1444.65  10.91
2166.0  12983.56  1427.73  11.00
2176.0  12771.15  1442.33  11.29
2186.0  12627.18  1438.94  11.40
2196.0  12513.18  1431.05  11.44
2206.0  12456.23  1451.55  11.65
2216.0  12351.60  1433.34  11.60
2226.0  12205.08  1399.09  11.46
2236.0  12132.89  1353.69  11.16
2246.0  11882.62  1307.05  11.00
2256.0  11773.90  1273.45  10.82
2266.0  11670.88  1210.77  10.37
2276.0  11528.71  1143.21  9.92
2286.0  11463.55  1112.47  9.70
2296.0  11358.16  1066.70  9.39
2306.0  11039.70  970.85  8.79
2316.0  10655.77  949.02  8.91
2326.0  10608.43  957.83  9.03
2336.0  10592.93  918.11  8.67
2346.0  10498.36  894.80  8.52
2356.0  10259.04  848.70  8.27
2366.0  10158.26  817.73  8.05
2376.0  9929.58  806.69  8.12
2386.0  9815.44  768.10  7.83
2396.0  9663.63  762.25  7.89
2406.0  9510.88  728.60  7.66
2416.0  9304.41  676.57  7.27
2426.0  9217.28  646.73  7.02
2436.0  8983.54  646.65  7.20
2446.0  8817.11  586.51  6.65
2456.0  8689.94  590.96  6.80
2466.0  8452.21  574.60  6.80
2476.0  8254.64  543.09  6.58
2486.0  8114.28  510.32  6.29
2496.0  7981.99  510.02  6.39
2506.0  8320.96  514.29  6.18
