/*** Spectra Vista SIG Data ***/
name= RS.sig
comm= Resampled spectral data SIG file reprocesed for matching/overlap;Averaged Ref/Tar of files: RD2S10,RD2S11,RD2S12
data=
346.0  509.60  149.17  29.27
356.0  828.71  166.36  20.07
366.0  1135.02  180.41  15.90
376.0  1579.37  183.48  11.62
386.0  1995.77  180.38  9.04
396.0  2559.82  220.30  8.61
406.0  3091.33  202.18  6.54
416.0  3756.05  237.24  6.32
426.0  4330.84  244.35  5.64
436.0  5235.06  270.74  5.17
446.0  6088.18  309.95  5.09
456.0  6942.22  329.34  4.74
466.0  8223.74  387.02  4.71
476.0  9370.48  439.32  4.69
486.0  10269.91  453.63  4.42
496.0  11746.45  521.62  4.44
506.0  13053.58  584.76  4.48
516.0  13946.28  603.38  4.33
526.0  15576.79  660.14  4.24
536.0  17486.02  754.04  4.31
546.0  19041.40  841.42  4.42
556.0  19524.52  860.78  4.41
566.0  20999.31  960.32  4.57
576.0  23067.50  1182.58  5.13
586.0  24676.47  1537.59  6.23
596.0  26082.33  2035.71  7.80
606.0  26687.61  2698.91  10.11
616.0  28173.19  3774.09  13.40
626.0  30688.38  5283.14  17.22
636.0  30262.72  6491.15  21.45
646.0  30879.36  7040.05  22.80
656.0  30774.24  6978.94  22.68
666.0  32506.69  6408.01  19.71
676.0  34219.05  6282.78  18.36
686.0  36429.62  9567.45  26.26
696.0  37023.78  17931.69  48.43
706.0  37160.43  24224.56  65.19
716.0  36697.84  27160.85  74.01
726.0  35913.80  28215.50  78.56
736.0  35729.66  28589.68  80.02
746.0  37736.85  30939.06  81.99
756.0  38321.00  31868.46  83.16
766.0  39510.69  33582.91  85.00
776.0  40059.59  34560.78  86.27
786.0  40131.74  34952.17  87.09
796.0  39280.82  34169.36  86.99
806.0  38244.14  33324.30  87.14
816.0  38036.29  33276.60  87.49
826.0  37709.30  32879.60  87.19
836.0  38038.49  33008.39  86.78
846.0  38692.27  33901.21  87.62
856.0  39178.52  34448.78  87.93
866.0  39402.80  34647.86  87.93
876.0  39579.78  34581.13  87.37
886.0  39738.64  34247.70  86.18
896.0  39527.49  33421.40  84.55
906.0  39437.50  32844.24  83.28
916.0  39115.31  31930.34  81.63
926.0  39024.38  30837.71  79.02
936.0  39929.50  30143.55  75.49
946.0  40662.60  29149.60  71.69
956.0  41393.84  27673.30  66.85
966.0  41958.59  27174.23  64.76
976.0  42665.70  27280.44  63.94
986.0  43514.08  27083.07  62.24
996.0  44198.08  27864.96  63.05
1006.0  44152.39  28568.92  64.71
1016.0  44379.04  29679.85  66.88
1026.0  44401.68  30637.71  69.00
1036.0  44210.66  31391.46  71.00
1046.0  44505.96  32510.41  73.05
1056.0  44664.21  33380.65  74.74
1066.0  44609.35  33783.39  75.73
1076.0  44397.60  33736.35  75.99
1086.0  44469.15  33587.53  75.53
1096.0  44486.78  33107.08  74.42
1106.0  44367.02  32424.73  73.08
1116.0  44078.91  31462.28  71.38
1126.0  43954.95  30087.82  68.45
1136.0  43902.29  27586.45  62.84
1146.0  43783.94  24601.57  56.19
1156.0  43564.50  22692.33  52.09
1166.0  43347.15  21918.14  50.56
1176.0  43236.47  21575.98  49.90
1186.0  43266.58  21349.59  49.34
1196.0  42749.21  20931.43  48.96
1206.0  42347.95  20772.66  49.05
1216.0  42062.65  20864.73  49.60
1226.0  41760.57  21071.16  50.46
1236.0  41549.33  21283.70  51.23
1246.0  41291.98  21409.02  51.85
1256.0  41002.94  21450.64  52.31
1266.0  40714.26  21383.50  52.52
1276.0  40752.77  21332.15  52.35
1286.0  40729.17  21074.84  51.74
1296.0  40419.20  20462.17  50.62
1306.0  39889.01  19465.36  48.80
1316.0  39301.71  18224.89  46.37
1326.0  38739.73  16807.03  43.38
1336.0  38152.03  15358.78  40.26
1346.0  37634.91  14081.62  37.42
1356.0  36932.28  12887.70  34.90
1366.0  36373.67  11822.80  32.50
1376.0  36238.22  10532.34  29.06
1386.0  35907.93  8532.33  23.76
1396.0  35482.45  6528.24  18.40
1406.0  35048.23  5145.37  14.68
1416.0  34958.68  4428.37  12.67
1426.0  34812.11  4082.53  11.73
1436.0  34651.53  3913.45  11.29
1446.0  34455.26  3846.17  11.16
1456.0  34203.50  3815.65  11.16
1466.0  34017.99  3863.69  11.36
1476.0  33677.47  4000.41  11.88
1486.0  33445.44  4256.20  12.73
1496.0  33136.51  4571.19  13.80
1506.0  32878.23  4752.20  14.45
1516.0  32532.33  4919.58  15.12
1526.0  32200.64  5171.53  16.06
1536.0  31935.91  5442.39  17.04
1546.0  31612.44  5695.74  18.02
1556.0  31368.42  5926.37  18.89
1566.0  31082.67  6131.05  19.72
1576.0  30694.72  6357.22  20.71
1586.0  30400.45  6522.71  21.46
1596.0  30038.76  6639.29  22.10
1606.0  29713.74  6761.51  22.76
1616.0  29361.62  6870.45  23.40
1626.0  29041.80  6969.12  24.00
1636.0  28665.08  7027.80  24.52
1646.0  28273.39  7011.49  24.80
1656.0  27876.35  6953.86  24.95
1666.0  27464.92  6872.38  25.02
1676.0  27087.15  6772.94  25.00
1686.0  27082.21  6688.87  24.70
1696.0  26749.12  6507.78  24.33
1706.0  26324.28  6260.51  23.78
1716.0  25713.57  5936.40  23.09
1726.0  25342.79  5669.20  22.37
1736.0  25046.96  5505.15  21.98
1746.0  24724.28  5326.14  21.54
1756.0  24256.84  5060.80  20.86
1766.0  23870.66  4868.79  20.40
1776.0  23641.10  4756.45  20.12
1786.0  23371.07  4649.33  19.89
1796.0  23059.77  4568.94  19.81
1806.0  22801.89  4527.74  19.86
1816.0  22515.30  4486.91  19.93
1826.0  22114.90  4403.54  19.91
1836.0  21613.42  4269.48  19.75
1846.0  21215.40  4155.44  19.59
1856.0  20774.86  3964.92  19.09
1866.0  20736.29  3459.19  16.68
1876.0  20407.50  2699.97  13.23
1886.0  20155.03  2122.89  10.53
1896.0  19660.33  1836.46  9.34
1906.0  18631.25  1121.02  6.02
1916.0  18318.88  1039.74  5.68
1926.0  18038.46  1008.05  5.59
1936.0  17863.51  987.29  5.53
1946.0  17797.41  1009.44  5.67
1956.0  17592.99  1019.16  5.79
1966.0  17571.94  1053.92  6.00
1976.0  17404.06  1100.29  6.32
1986.0  17183.68  1109.38  6.46
1996.0  16906.31  1156.91  6.84
2006.0  16756.31  1193.65  7.12
2016.0  16485.40  1222.53  7.42
2026.0  16206.02  1241.06  7.66
2036.0  15962.47  1275.65  7.99
2046.0  15735.40  1296.27  8.24
2056.0  15460.05  1302.40  8.42
2066.0  15198.46  1321.42  8.69
2076.0  14951.14  1344.07  8.99
2086.0  14836.37  1370.31  9.24
2096.0  14558.23  1385.77  9.52
2106.0  14302.47  1393.92  9.75
2116.0  14222.98  1439.02  10.12
2126.0  14069.19  1452.10  10.32
2136.0  13798.40  1463.13  10.60
2146.0  13445.76  1453.56  10.81
2156.0  13239.56  1463.43  11.05
2166.0  12983.56  1459.06  11.24
2176.0  12771.15  1468.22  11.50
2186.0  12627.18  1455.72  11.53
2196.0  12513.18  1467.56  11.73
2206.0  12456.23  1483.25  11.91
2216.0  12351.60  1471.49  11.91
2226.0  12205.08  1437.66  11.78
2236.0  12132.89  1403.03  11.56
2246.0  11882.62  1327.41  11.17
2256.0  11773.90  1262.95  10.73
2266.0  11670.88  1194.25  10.23
2276.0  11528.71  1132.54  9.82
2286.0  11463.55  1089.46  9.50
2296.0  11358.16  1060.50  9.34
2306.0  11039.70  952.72  8.63
2316.0  10655.77  943.27  8.85
2326.0  10608.43  947.36  8.93
2336.0  10592.93  899.14  8.49
2346.0  10498.36  862.12  8.21
2356.0  10259.04  826.65  8.06
2366.0  10158.26  826.19  8.13
2376.0  9929.58  777.38  7.83
2386.0  9815.44  754.05  7.68
2396.0  9663.63  723.16  7.48
2406.0  9510.88  690.49  7.26
2416.0  9304.41  673.14  7.23
2426.0  9217.28  650.50  7.06
2436.0  8983.54  630.71  7.02
2446.0  8817.11  576.25  6.54
2456.0  8689.94  584.68  6.73
2466.0  8452.21  518.24  6.13
2476.0  8254.64  511.18  6.19
2486.0  8114.28  481.66  5.94
2496.0  7981.99  495.38  6.21
2506.0  8320.96  470.69  5.66
