/*** Spectra Vista SIG Data ***/
name= RS.sig
comm= Resampled spectral data SIG file reprocesed for matching/overlap;Averaged Ref/Tar of files: RD2S1,RD2S2,RD2S3
data=
346.0  509.60  125.38  24.60
356.0  828.71  147.77  17.83
366.0  1135.02  163.73  14.43
376.0  1579.37  178.34  11.29
386.0  1995.77  175.37  8.79
396.0  2559.82  220.43  8.61
406.0  3091.33  217.47  7.03
416.0  3756.05  255.26  6.80
426.0  4330.84  266.80  6.16
436.0  5235.06  299.26  5.72
446.0  6088.18  343.45  5.64
456.0  6942.22  369.99  5.33
466.0  8223.74  435.72  5.30
476.0  9370.48  480.95  5.13
486.0  10269.91  503.74  4.90
496.0  11746.45  575.03  4.90
506.0  13053.58  641.86  4.92
516.0  13946.28  662.20  4.75
526.0  15576.79  726.27  4.66
536.0  17486.02  836.74  4.79
546.0  19041.40  935.76  4.91
556.0  19524.52  978.82  5.01
566.0  20999.31  1145.09  5.45
576.0  23067.50  1494.40  6.48
586.0  24676.47  2030.01  8.23
596.0  26082.33  2712.16  10.40
606.0  26687.61  3502.37  13.12
616.0  28173.19  4603.95  16.34
626.0  30688.38  5743.05  18.71
636.0  30262.72  6744.58  22.29
646.0  30879.36  7131.79  23.10
656.0  30774.24  6848.97  22.26
666.0  32506.69  5983.26  18.41
676.0  34219.05  5757.61  16.83
686.0  36429.62  8692.46  23.86
696.0  37023.78  16190.73  43.73
706.0  37160.43  21754.89  58.54
716.0  36697.84  24128.20  65.75
726.0  35913.80  24799.02  69.05
736.0  35729.66  24915.97  69.73
746.0  37736.85  26877.93  71.22
756.0  38321.00  27472.93  71.69
766.0  39510.69  29000.77  73.40
776.0  40059.59  29799.41  74.39
786.0  40131.74  30147.63  75.12
796.0  39280.82  29219.36  74.39
806.0  38244.14  28433.75  74.35
816.0  38036.29  28375.80  74.60
826.0  37709.30  27957.07  74.14
836.0  38038.49  28067.04  73.79
846.0  38692.27  28915.77  74.73
856.0  39178.52  29301.89  74.79
866.0  39402.80  29507.98  74.89
876.0  39579.78  29452.88  74.41
886.0  39738.64  29074.41  73.16
896.0  39527.49  28306.78  71.61
906.0  39437.50  27819.86  70.54
916.0  39115.31  27024.21  69.09
926.0  39024.38  26024.55  66.69
936.0  39929.50  25365.28  63.53
946.0  40662.60  24426.28  60.07
956.0  41393.84  23105.12  55.82
966.0  41958.59  22633.81  53.94
976.0  42665.70  22670.41  53.13
986.0  43514.08  22252.71  51.14
996.0  44198.08  22884.08  51.78
1006.0  44152.39  23463.97  53.14
1016.0  44379.04  24421.40  55.03
1026.0  44401.68  25227.63  56.82
1036.0  44210.66  25862.04  58.50
1046.0  44505.96  26831.58  60.29
1056.0  44664.21  27583.01  61.76
1066.0  44609.35  27920.59  62.59
1076.0  44397.60  27864.89  62.76
1086.0  44469.15  27709.36  62.31
1096.0  44486.78  27269.50  61.30
1106.0  44367.02  26665.18  60.10
1116.0  44078.91  25814.80  58.56
1126.0  43954.95  24562.07  55.88
1136.0  43902.29  22318.99  50.84
1146.0  43783.94  19705.17  45.01
1156.0  43564.50  18115.34  41.58
1166.0  43347.15  17508.41  40.39
1176.0  43236.47  17245.36  39.89
1186.0  43266.58  17063.26  39.44
1196.0  42749.21  16729.86  39.13
1206.0  42347.95  16612.11  39.23
1216.0  42062.65  16693.18  39.69
1226.0  41760.57  16863.38  40.38
1236.0  41549.33  17034.97  41.00
1246.0  41291.98  17139.19  41.51
1256.0  41002.94  17176.52  41.89
1266.0  40714.26  17142.57  42.10
1276.0  40752.77  17089.65  41.93
1286.0  40729.17  16853.55  41.38
1296.0  40419.20  16332.46  40.41
1306.0  39889.01  15492.28  38.84
1316.0  39301.71  14457.76  36.79
1326.0  38739.73  13276.31  34.27
1336.0  38152.03  12087.26  31.68
1346.0  37634.91  11065.93  29.40
1356.0  36932.28  10112.98  27.38
1366.0  36373.67  9262.17  25.46
1376.0  36238.22  8233.08  22.72
1386.0  35907.93  6649.39  18.52
1396.0  35482.45  5106.60  14.39
1406.0  35048.23  4065.04  11.60
1416.0  34958.68  3524.59  10.08
1426.0  34812.11  3267.50  9.39
1436.0  34651.53  3144.55  9.07
1446.0  34455.26  3090.55  8.97
1456.0  34203.50  3068.90  8.97
1466.0  34017.99  3106.79  9.13
1476.0  33677.47  3211.25  9.54
1486.0  33445.44  3404.40  10.18
1496.0  33136.51  3651.52  11.02
1506.0  32878.23  3797.17  11.55
1516.0  32532.33  3921.17  12.05
1526.0  32200.64  4097.70  12.73
1536.0  31935.91  4294.81  13.45
1546.0  31612.44  4496.24  14.22
1556.0  31368.42  4653.99  14.84
1566.0  31082.67  4820.99  15.51
1576.0  30694.72  5000.63  16.29
1586.0  30400.45  5123.45  16.85
1596.0  30038.76  5204.81  17.33
1606.0  29713.74  5302.88  17.85
1616.0  29361.62  5383.73  18.34
1626.0  29041.80  5464.67  18.82
1636.0  28665.08  5511.89  19.23
1646.0  28273.39  5487.49  19.41
1656.0  27876.35  5428.51  19.47
1666.0  27464.92  5366.90  19.54
1676.0  27087.15  5287.15  19.52
1686.0  27082.21  5233.00  19.32
1696.0  26749.12  5098.77  19.06
1706.0  26324.28  4918.21  18.68
1716.0  25713.57  4677.43  18.19
1726.0  25342.79  4471.26  17.64
1736.0  25046.96  4345.21  17.35
1746.0  24724.28  4192.59  16.96
1756.0  24256.84  3988.76  16.44
1766.0  23870.66  3833.19  16.06
1776.0  23641.10  3745.84  15.84
1786.0  23371.07  3658.93  15.66
1796.0  23059.77  3603.40  15.63
1806.0  22801.89  3574.03  15.67
1816.0  22515.30  3533.05  15.69
1826.0  22114.90  3474.01  15.71
1836.0  21613.42  3369.08  15.59
1846.0  21215.40  3293.79  15.53
1856.0  20774.86  3177.79  15.30
1866.0  20736.29  2798.13  13.49
1876.0  20407.50  2191.02  10.74
1886.0  20155.03  1763.23  8.75
1896.0  19660.33  1546.05  7.86
1906.0  18631.25  920.56  4.94
1916.0  18318.88  857.88  4.68
1926.0  18038.46  829.65  4.60
1936.0  17863.51  807.86  4.52
1946.0  17797.41  819.59  4.61
1956.0  17592.99  830.27  4.72
1966.0  17571.94  863.76  4.92
1976.0  17404.06  877.20  5.04
1986.0  17183.68  892.11  5.19
1996.0  16906.31  917.98  5.43
2006.0  16756.31  946.23  5.65
2016.0  16485.40  965.03  5.85
2026.0  16206.02  983.50  6.07
2036.0  15962.47  1021.02  6.40
2046.0  15735.40  1020.48  6.49
2056.0  15460.05  1028.28  6.65
2066.0  15198.46  1033.05  6.80
2076.0  14951.14  1052.38  7.04
2086.0  14836.37  1075.21  7.25
2096.0  14558.23  1087.33  7.47
2106.0  14302.47  1094.37  7.65
2116.0  14222.98  1129.30  7.94
2126.0  14069.19  1142.48  8.12
2136.0  13798.40  1145.95  8.30
2146.0  13445.76  1145.81  8.52
2156.0  13239.56  1153.02  8.71
2166.0  12983.56  1143.08  8.80
2176.0  12771.15  1136.06  8.90
2186.0  12627.18  1130.21  8.95
2196.0  12513.18  1143.27  9.14
2206.0  12456.23  1144.92  9.19
2216.0  12351.60  1135.23  9.19
2226.0  12205.08  1111.11  9.10
2236.0  12132.89  1079.40  8.90
2246.0  11882.62  1051.02  8.84
2256.0  11773.90  987.65  8.39
2266.0  11670.88  955.65  8.19
2276.0  11528.71  894.85  7.76
2286.0  11463.55  877.17  7.65
2296.0  11358.16  839.23  7.39
2306.0  11039.70  762.44  6.91
2316.0  10655.77  763.80  7.17
2326.0  10608.43  743.52  7.01
2336.0  10592.93  715.82  6.76
2346.0  10498.36  694.67  6.62
2356.0  10259.04  660.45  6.44
2366.0  10158.26  648.61  6.39
2376.0  9929.58  631.31  6.36
2386.0  9815.44  590.06  6.01
2396.0  9663.63  577.71  5.98
2406.0  9510.88  545.40  5.73
2416.0  9304.41  548.24  5.89
2426.0  9217.28  516.22  5.60
2436.0  8983.54  487.79  5.43
2446.0  8817.11  476.68  5.41
2456.0  8689.94  469.09  5.40
2466.0  8452.21  436.19  5.16
2476.0  8254.64  433.87  5.26
2486.0  8114.28  406.23  5.01
2496.0  7981.99  398.43  4.99
2506.0  8320.96  347.15  4.17
