/*** Spectra Vista SIG Data ***/
name= S5.sig
comm= Resampled spectral data SIG file reprocesed for matching/overlap;Averaged Ref/Tar of files: RD3S13,RD3S14,RD3S15
data=
346.0  598.78  193.75  32.36
356.0  924.17  239.55  25.92
366.0  1234.61  270.22  21.89
376.0  1691.57  310.37  18.35
386.0  2110.32  317.63  15.05
396.0  2699.64  401.76  14.88
406.0  3258.06  408.75  12.55
416.0  3980.12  492.61  12.38
426.0  4560.62  522.45  11.46
436.0  5560.57  597.03  10.74
446.0  6459.13  679.77  10.52
456.0  7345.42  739.95  10.07
466.0  8824.96  885.32  10.03
476.0  10121.58  988.52  9.77
486.0  10943.49  1014.36  9.27
496.0  12761.25  1190.04  9.33
506.0  14311.81  1390.08  9.71
516.0  15112.04  1529.98  10.12
526.0  16957.18  1763.80  10.40
536.0  19355.60  2076.38  10.73
546.0  21330.59  2375.78  11.14
556.0  21581.55  2567.91  11.90
566.0  23226.44  3144.00  13.54
576.0  25810.52  4209.11  16.31
586.0  27755.51  5644.37  20.34
596.0  29194.08  7316.47  25.06
606.0  29534.45  8929.32  30.23
616.0  31318.23  10984.12  35.07
626.0  34410.58  13661.27  39.70
636.0  34069.21  14813.85  43.48
646.0  34679.65  14856.51  42.84
656.0  34069.42  13969.79  41.00
666.0  35802.93  12580.01  35.14
676.0  37841.78  12221.88  32.30
686.0  40854.13  17008.13  41.63
696.0  41747.28  27004.83  64.69
706.0  41971.06  33369.07  79.50
716.0  41223.34  35641.11  86.46
726.0  40067.78  35924.39  89.66
736.0  39511.29  35789.62  90.58
746.0  41985.01  38475.61  91.64
756.0  42844.63  39232.97  91.57
766.0  44461.06  41193.85  92.65
776.0  45318.27  42269.75  93.27
786.0  45304.05  42673.68  94.19
796.0  44083.17  41489.29  94.12
806.0  42558.06  40315.54  94.73
816.0  42205.19  40072.35  94.95
826.0  41881.04  39374.17  94.01
836.0  42513.48  39349.57  92.56
846.0  43677.73  40357.39  92.40
856.0  44639.93  40966.41  91.77
866.0  45173.91  41310.90  91.45
876.0  45452.84  41236.02  90.72
886.0  45709.40  40801.57  89.26
896.0  45235.90  39721.75  87.81
906.0  45023.00  38949.12  86.51
916.0  44495.20  37791.61  84.93
926.0  44269.25  36355.79  82.12
936.0  45413.73  35339.56  77.82
946.0  46396.61  34025.35  73.34
956.0  47429.46  32223.06  67.94
966.0  48326.20  31580.83  65.35
976.0  49108.57  31965.21  65.09
986.0  50490.65  29348.22  58.13
996.0  50607.35  30303.17  59.88
1006.0  50486.13  31059.46  61.52
1016.0  50803.76  32304.95  63.59
1026.0  50772.47  33365.54  65.72
1036.0  50488.61  34212.52  67.76
1046.0  50910.83  35439.74  69.61
1056.0  51254.42  36390.38  71.00
1066.0  51336.62  36801.39  71.69
1076.0  51162.22  36700.54  71.73
1086.0  51303.09  36462.52  71.07
1096.0  51344.30  35822.90  69.77
1106.0  51211.90  34938.23  68.22
1116.0  50831.30  33768.59  66.43
1126.0  50674.44  32125.23  63.40
1136.0  50616.91  29243.90  57.77
1146.0  50531.75  25892.87  51.24
1156.0  50358.44  23828.98  47.32
1166.0  50175.54  23009.60  45.86
1176.0  50092.24  22651.53  45.22
1186.0  50160.75  22414.29  44.68
1196.0  49589.85  21968.70  44.30
1206.0  49136.73  21787.16  44.34
1216.0  48856.16  21863.36  44.75
1226.0  48538.40  22043.26  45.41
1236.0  48332.55  22241.64  46.02
1246.0  48044.92  22362.64  46.55
1256.0  47756.51  22398.60  46.90
1266.0  47442.71  22304.86  47.01
1276.0  47551.66  22238.94  46.77
1286.0  47606.03  21928.18  46.06
1296.0  47326.24  21257.52  44.92
1306.0  46758.50  20191.09  43.18
1316.0  46095.57  18874.98  40.95
1326.0  45453.96  17393.92  38.27
1336.0  44765.54  15911.51  35.54
1346.0  44091.89  14575.57  33.06
1356.0  43065.01  13314.92  30.92
1366.0  42453.65  12267.76  28.90
1376.0  42338.17  10992.53  25.96
1386.0  41985.88  9044.14  21.54
1396.0  41548.36  7087.74  17.06
1406.0  41106.41  5752.91  14.00
1416.0  41061.27  5055.16  12.31
1426.0  40954.01  4720.28  11.53
1436.0  40796.14  4555.29  11.17
1446.0  40594.32  4469.24  11.01
1456.0  40330.62  4437.69  11.00
1466.0  40125.74  4476.12  11.16
1476.0  39754.25  4599.74  11.57
1486.0  39484.92  4849.64  12.28
1496.0  39151.21  5164.53  13.19
1506.0  38800.67  5365.88  13.83
1516.0  38385.61  5493.25  14.31
1526.0  38038.86  5698.53  14.98
1536.0  37757.73  5936.89  15.72
1546.0  37407.06  6164.32  16.48
1556.0  37137.95  6377.40  17.17
1566.0  36823.70  6569.58  17.84
1576.0  36372.01  6797.62  18.69
1586.0  36009.48  6940.41  19.27
1596.0  35619.37  7047.45  19.79
1606.0  35232.08  7149.24  20.29
1616.0  34829.65  7247.92  20.81
1626.0  34452.68  7337.75  21.30
1636.0  34007.58  7392.61  21.74
1646.0  33523.68  7400.26  22.07
1656.0  33037.62  7350.55  22.25
1666.0  32548.04  7279.86  22.37
1676.0  32123.29  7184.47  22.37
1686.0  32117.51  7117.43  22.16
1696.0  31764.57  6949.89  21.88
1706.0  31316.98  6708.77  21.42
1716.0  30611.05  6389.27  20.87
1726.0  30177.81  6120.28  20.28
1736.0  29812.17  5942.21  19.93
1746.0  29439.81  5746.32  19.52
1756.0  28928.41  5473.35  18.92
1766.0  28491.94  5260.62  18.46
1776.0  28263.25  5135.93  18.17
1786.0  27973.79  5017.77  17.94
1796.0  27612.53  4926.34  17.84
1806.0  27286.01  4868.31  17.84
1816.0  26879.26  4791.68  17.83
1826.0  26408.56  4696.69  17.78
1836.0  25765.82  4543.66  17.63
1846.0  25402.19  4426.44  17.43
1856.0  25067.72  4231.99  16.88
1866.0  24868.79  3783.05  15.21
1876.0  24488.38  3091.87  12.63
1886.0  24233.30  2555.61  10.55
1896.0  23683.96  2235.02  9.44
1906.0  22096.75  1251.62  5.66
1916.0  21802.32  1248.07  5.72
1926.0  21588.87  1219.65  5.65
1936.0  21449.43  1212.09  5.65
1946.0  21420.23  1210.43  5.65
1956.0  21201.75  1243.09  5.86
1966.0  21198.12  1255.55  5.92
1976.0  21006.67  1284.45  6.11
1986.0  20732.55  1307.15  6.30
1996.0  20450.49  1325.54  6.48
2006.0  20269.19  1367.14  6.74
2016.0  19957.87  1376.57  6.90
2026.0  19629.85  1401.14  7.14
2036.0  19319.95  1429.95  7.40
2046.0  19073.35  1442.13  7.56
2056.0  18736.02  1461.24  7.80
2066.0  18425.00  1465.80  7.96
2076.0  18163.31  1484.12  8.17
2086.0  17998.96  1503.51  8.35
2096.0  17698.67  1511.69  8.54
2106.0  17393.37  1527.18  8.78
2116.0  17301.34  1560.43  9.02
2126.0  17117.10  1572.45  9.19
2136.0  16805.93  1582.41  9.42
2146.0  16338.81  1593.61  9.75
2156.0  16108.43  1582.10  9.82
2166.0  15818.08  1570.93  9.93
2176.0  15571.16  1563.40  10.04
2186.0  15407.91  1567.59  10.17
2196.0  15291.27  1568.18  10.26
2206.0  15252.10  1571.35  10.30
2216.0  15137.72  1558.97  10.30
2226.0  14957.58  1525.71  10.20
2236.0  14828.49  1494.22  10.08
2246.0  14572.63  1439.31  9.88
2256.0  14413.52  1391.31  9.65
2266.0  14283.01  1341.82  9.39
2276.0  14142.85  1285.52  9.09
2286.0  14066.30  1243.99  8.84
2296.0  13956.39  1197.31  8.58
2306.0  13536.25  1108.87  8.19
2316.0  13130.37  1080.12  8.23
2326.0  13082.91  1081.30  8.27
2336.0  13030.52  1038.07  7.97
2346.0  12874.44  1002.31  7.79
2356.0  12605.38  964.59  7.65
2366.0  12490.11  919.43  7.36
2376.0  12262.88  908.08  7.41
2386.0  12077.58  863.67  7.15
2396.0  11871.57  856.66  7.22
2406.0  11728.43  813.40  6.94
2416.0  11508.86  802.92  6.98
2426.0  11344.58  758.47  6.69
2436.0  11091.32  747.02  6.74
2446.0  10929.32  713.36  6.53
2456.0  10711.77  696.90  6.51
2466.0  10484.26  649.63  6.20
2476.0  10216.57  638.89  6.25
2486.0  9941.47  610.28  6.14
2496.0  9864.73  601.86  6.10
2506.0  10308.86  657.66  6.38
