/*** Spectra Vista SIG Data ***/
name= RB.sig
comm= Resampled spectral data SIG file reprocesed for matching/overlap;Averaged Ref/Tar of files: RD4B1,RD4B3
data=
346.0  300.98  102.56  34.08
356.0  463.72  124.51  26.85
366.0  636.68  134.05  21.05
376.0  885.46  147.72  16.68
386.0  1110.03  148.24  13.35
396.0  1411.36  179.24  12.70
406.0  1724.09  185.26  10.75
416.0  2114.15  224.72  10.63
426.0  2411.20  245.66  10.19
436.0  2948.34  285.58  9.69
446.0  3434.75  331.26  9.64
456.0  3900.43  367.09  9.41
466.0  4655.33  436.20  9.37
476.0  5313.35  497.78  9.37
486.0  5742.38  516.57  9.00
496.0  6668.62  613.09  9.19
506.0  7414.48  734.98  9.91
516.0  7736.05  853.46  11.03
526.0  8614.28  1054.92  12.25
536.0  9808.20  1289.21  13.14
546.0  10787.45  1500.67  13.91
556.0  10874.02  1597.17  14.69
566.0  11620.97  1842.95  15.86
576.0  12831.36  2257.46  17.59
586.0  13800.83  2776.06  20.12
596.0  14570.41  3372.53  23.15
606.0  14819.23  3898.64  26.31
616.0  15785.73  4565.73  28.92
626.0  17422.26  5346.97  30.69
636.0  17172.91  5810.16  33.83
646.0  17313.58  5418.52  31.30
656.0  16958.91  4631.00  27.31
666.0  17952.46  4367.21  24.33
676.0  19107.41  4357.23  22.80
686.0  20744.30  6440.89  31.05
696.0  21302.17  11361.12  53.33
706.0  21485.54  14977.32  69.71
716.0  21106.17  16519.29  78.27
726.0  20444.90  16958.40  82.95
736.0  20072.78  16979.79  84.59
746.0  21269.54  18188.70  85.52
756.0  21715.17  18762.08  86.40
766.0  22630.30  19683.75  86.98
776.0  23222.43  20346.88  87.62
786.0  23351.40  20651.32  88.44
796.0  22865.98  20524.28  89.76
806.0  22206.84  20114.33  90.58
816.0  22105.85  20101.95  90.93
826.0  21970.10  19848.68  90.34
836.0  22256.75  19793.32  88.93
846.0  22764.08  20101.11  88.30
856.0  23134.08  20379.82  88.09
866.0  23280.52  20419.42  87.71
876.0  23337.25  20340.29  87.16
886.0  23426.87  20260.78  86.49
896.0  23219.08  19828.91  85.40
906.0  23187.39  19543.60  84.29
916.0  23019.76  19048.22  82.75
926.0  22972.36  18394.48  80.07
936.0  23654.47  17964.13  75.94
946.0  24257.59  17312.72  71.37
956.0  24792.19  16351.91  65.96
966.0  25310.85  16003.95  63.23
976.0  25805.97  15954.65  61.83
986.0  26419.21  17182.41  65.04
996.0  26647.14  17788.72  66.76
1006.0  26606.80  18261.24  68.63
1016.0  26773.23  18925.67  70.69
1026.0  26768.69  19568.06  73.10
1036.0  26610.23  20044.08  75.32
1046.0  26817.96  20765.43  77.43
1056.0  26974.32  21324.37  79.05
1066.0  27001.14  21581.96  79.93
1076.0  26907.02  21546.84  80.08
1086.0  27000.17  21433.25  79.38
1096.0  27021.97  21108.95  78.12
1106.0  26988.71  20619.23  76.40
1116.0  26827.19  19969.73  74.44
1126.0  26782.22  19112.09  71.36
1136.0  26806.48  17551.91  65.48
1146.0  26783.32  15721.50  58.70
1156.0  26689.55  14497.94  54.32
1166.0  26634.11  13961.12  52.42
1176.0  26621.63  13726.35  51.56
1186.0  26686.27  13562.33  50.82
1196.0  26376.31  13306.26  50.45
1206.0  26163.12  13185.41  50.40
1216.0  26024.95  13210.81  50.76
1226.0  25846.71  13305.64  51.48
1236.0  25752.82  13420.43  52.11
1246.0  25614.66  13485.08  52.65
1256.0  25475.83  13502.27  53.00
1266.0  25314.04  13469.77  53.21
1276.0  25373.13  13430.12  52.93
1286.0  25403.93  13282.36  52.28
1296.0  25257.97  12923.28  51.17
1306.0  24949.96  12347.32  49.49
1316.0  24591.02  11627.36  47.28
1326.0  24232.82  10800.52  44.57
1336.0  23855.58  9966.79  41.78
1346.0  23503.73  9256.99  39.39
1356.0  22973.78  8604.43  37.45
1366.0  22619.97  7972.08  35.24
1376.0  22547.29  7270.21  32.24
1386.0  22336.04  6151.70  27.54
1396.0  22099.31  4935.25  22.33
1406.0  21849.51  4013.67  18.37
1416.0  21811.39  3492.39  16.01
1426.0  21760.87  3214.29  14.77
1436.0  21688.98  3070.95  14.16
1446.0  21571.09  3004.19  13.93
1456.0  21448.73  2966.87  13.83
1466.0  21345.12  2984.01  13.98
1476.0  21146.04  3054.34  14.44
1486.0  21006.72  3203.04  15.25
1496.0  20823.92  3386.06  16.26
1506.0  20651.18  3516.94  17.03
1516.0  20455.77  3591.29  17.56
1526.0  20257.55  3742.93  18.48
1536.0  20096.43  3845.59  19.14
1546.0  19894.80  3980.81  20.01
1556.0  19746.35  4134.15  20.94
1566.0  19580.39  4251.61  21.71
1576.0  19339.02  4371.12  22.60
1586.0  19146.44  4460.16  23.29
1596.0  18933.87  4506.76  23.80
1606.0  18729.11  4570.86  24.41
1616.0  18504.97  4623.45  24.98
1626.0  18305.91  4665.76  25.49
1636.0  18069.01  4688.62  25.95
1646.0  17818.51  4690.20  26.32
1656.0  17552.22  4654.80  26.52
1666.0  17298.94  4604.58  26.62
1676.0  17076.69  4525.25  26.50
1686.0  17060.73  4473.63  26.22
1696.0  16861.46  4357.76  25.84
1706.0  16611.03  4208.85  25.34
1716.0  16237.09  4009.49  24.69
1726.0  15996.13  3846.13  24.04
1736.0  15803.28  3739.18  23.66
1746.0  15603.66  3636.06  23.30
1756.0  15326.26  3484.40  22.73
1766.0  15088.96  3359.84  22.27
1776.0  14960.65  3291.15  22.00
1786.0  14796.56  3220.90  21.77
1796.0  14599.28  3165.68  21.68
1806.0  14432.56  3142.93  21.78
1816.0  14220.87  3105.84  21.84
1826.0  13958.76  3058.39  21.91
1836.0  13625.22  2962.02  21.74
1846.0  13402.12  2852.27  21.28
1856.0  13193.00  2698.73  20.46
1866.0  13077.36  2428.42  18.57
1876.0  12862.98  1999.45  15.54
1886.0  12714.37  1599.50  12.58
1896.0  12428.70  1348.80  10.85
1906.0  11584.61  881.12  7.61
1916.0  11419.95  830.88  7.28
1926.0  11288.15  803.54  7.12
1936.0  11206.69  793.23  7.08
1946.0  11198.13  809.57  7.23
1956.0  11063.98  821.45  7.42
1966.0  11075.86  859.46  7.76
1976.0  10974.82  873.08  7.96
1986.0  10831.42  885.68  8.18
1996.0  10659.46  923.94  8.67
2006.0  10562.82  946.96  8.96
2016.0  10412.68  958.87  9.21
2026.0  10222.99  975.71  9.54
2036.0  10070.22  974.52  9.68
2046.0  9949.56  991.90  9.97
2056.0  9753.19  1000.22  10.26
2066.0  9593.30  1000.97  10.43
2076.0  9443.55  1013.40  10.73
2086.0  9354.07  1025.29  10.96
2096.0  9210.37  1035.13  11.24
2106.0  9026.55  1033.00  11.44
2116.0  8990.49  1063.51  11.83
2126.0  8894.38  1092.63  12.28
2136.0  8704.97  1060.25  12.18
2146.0  8486.07  1076.51  12.69
2156.0  8343.29  1067.07  12.79
2166.0  8183.41  1088.04  13.30
2176.0  8051.70  1067.56  13.26
2186.0  7958.55  1076.45  13.53
2196.0  7908.78  1065.10  13.47
2206.0  7862.30  1072.24  13.64
2216.0  7807.07  1069.85  13.70
2226.0  7710.20  1044.00  13.54
2236.0  7642.35  1032.13  13.51
2246.0  7476.81  993.94  13.29
2256.0  7391.85  916.92  12.40
2266.0  7320.92  882.07  12.05
2276.0  7252.25  850.36  11.73
2286.0  7189.78  811.16  11.28
2296.0  7136.98  779.52  10.92
2306.0  6908.51  711.72  10.30
2316.0  6711.36  693.79  10.34
2326.0  6670.62  689.12  10.33
2336.0  6631.35  675.89  10.19
2346.0  6585.90  635.61  9.65
2356.0  6421.23  609.20  9.49
2366.0  6363.62  595.92  9.36
2376.0  6263.23  566.17  9.04
2386.0  6151.80  558.61  9.08
2396.0  6055.25  526.71  8.70
2406.0  5958.69  486.34  8.16
2416.0  5857.57  496.87  8.48
2426.0  5766.53  455.65  7.90
2436.0  5600.60  447.35  7.99
2446.0  5521.33  429.39  7.78
2456.0  5420.45  395.93  7.30
2466.0  5315.59  356.51  6.71
2476.0  5191.59  378.53  7.29
2486.0  5020.73  359.25  7.16
2496.0  4966.51  341.51  6.88
2506.0  5248.23  351.85  6.70
