/*** Spectra Vista SIG Data ***/
name= RS3.sig
comm= Resampled spectral data SIG file reprocesed for matching/overlap;Averaged Ref/Tar of files: RD4S7,RD4S8,RD4S9
data=
346.0  300.98  83.23  27.65
356.0  463.72  97.56  21.04
366.0  636.68  107.26  16.85
376.0  885.46  116.00  13.10
386.0  1110.03  107.89  9.72
396.0  1411.36  129.21  9.15
406.0  1724.09  119.83  6.95
416.0  2114.15  138.88  6.57
426.0  2411.20  142.35  5.90
436.0  2948.34  157.37  5.34
446.0  3434.75  176.81  5.15
456.0  3900.43  184.68  4.73
466.0  4655.33  212.60  4.57
476.0  5313.35  235.63  4.43
486.0  5742.38  236.76  4.12
496.0  6668.62  267.31  4.01
506.0  7414.48  294.56  3.97
516.0  7736.05  304.69  3.94
526.0  8614.28  331.66  3.85
536.0  9808.20  380.46  3.88
546.0  10787.45  418.69  3.88
556.0  10874.02  420.40  3.87
566.0  11620.97  464.27  4.00
576.0  12831.36  568.09  4.43
586.0  13800.83  755.15  5.47
596.0  14570.41  1016.12  6.97
606.0  14819.23  1420.97  9.59
616.0  15785.73  2133.51  13.52
626.0  17422.26  3117.61  17.89
636.0  17172.91  3958.01  23.05
646.0  17313.58  4625.00  26.71
656.0  16958.91  4932.14  29.08
666.0  17952.46  4926.51  27.44
676.0  19107.41  5294.82  27.71
686.0  20744.30  7944.17  38.30
696.0  21302.17  11814.93  55.46
706.0  21485.54  13808.00  64.27
716.0  21106.17  14451.00  68.47
726.0  20444.90  14406.74  70.47
736.0  20072.78  14294.70  71.21
746.0  21269.54  15423.83  72.52
756.0  21715.17  15768.65  72.62
766.0  22630.30  16761.53  74.07
776.0  23222.43  17390.78  74.89
786.0  23351.40  17741.23  75.98
796.0  22865.98  17309.48  75.70
806.0  22206.84  16913.32  76.16
816.0  22105.85  16883.63  76.38
826.0  21970.10  16593.03  75.53
836.0  22256.75  16578.76  74.49
846.0  22764.08  16974.11  74.57
856.0  23134.08  17128.04  74.04
866.0  23280.52  17215.38  73.95
876.0  23337.25  17151.70  73.49
886.0  23426.87  16983.81  72.50
896.0  23219.08  16577.01  71.39
906.0  23187.39  16331.69  70.43
916.0  23019.76  15931.81  69.21
926.0  22972.36  15404.27  67.06
936.0  23654.47  15087.37  63.78
946.0  24257.59  14614.26  60.25
956.0  24792.19  13936.42  56.21
966.0  25310.85  13657.96  53.96
976.0  25805.97  13742.11  53.25
986.0  26419.21  13471.96  50.99
996.0  26647.14  14011.76  52.58
1006.0  26606.80  14335.58  53.88
1016.0  26773.23  14826.10  55.38
1026.0  26768.69  15245.21  56.95
1036.0  26610.23  15533.81  58.38
1046.0  26817.96  16033.48  59.79
1056.0  26974.32  16437.32  60.94
1066.0  27001.14  16622.73  61.56
1076.0  26907.02  16583.26  61.63
1086.0  27000.17  16487.62  61.06
1096.0  27021.97  16232.87  60.07
1106.0  26988.71  15894.92  58.89
1116.0  26827.19  15413.28  57.45
1126.0  26782.22  14746.85  55.06
1136.0  26806.48  13540.56  50.51
1146.0  26783.32  12134.55  45.31
1156.0  26689.55  11218.19  42.03
1166.0  26634.11  10847.33  40.73
1176.0  26621.63  10666.58  40.07
1186.0  26686.27  10547.79  39.53
1196.0  26376.31  10317.14  39.12
1206.0  26163.12  10231.92  39.11
1216.0  26024.95  10259.04  39.42
1226.0  25846.71  10354.38  40.06
1236.0  25752.82  10439.03  40.54
1246.0  25614.66  10501.94  41.00
1256.0  25475.83  10514.90  41.27
1266.0  25314.04  10481.17  41.40
1276.0  25373.13  10463.65  41.24
1286.0  25403.93  10337.33  40.69
1296.0  25257.97  10045.19  39.77
1306.0  24949.96  9571.18  38.36
1316.0  24591.02  8984.64  36.54
1326.0  24232.82  8303.34  34.26
1336.0  23855.58  7596.56  31.84
1346.0  23503.73  6989.58  29.74
1356.0  22973.78  6448.02  28.07
1366.0  22619.97  5918.55  26.17
1376.0  22547.29  5316.51  23.58
1386.0  22336.04  4316.62  19.33
1396.0  22099.31  3312.69  14.99
1406.0  21849.51  2603.50  11.92
1416.0  21811.39  2221.98  10.19
1426.0  21760.87  2026.18  9.31
1436.0  21688.98  1930.42  8.90
1446.0  21571.09  1875.89  8.70
1456.0  21448.73  1856.51  8.66
1466.0  21345.12  1868.16  8.75
1476.0  21146.04  1921.54  9.09
1486.0  21006.72  2038.04  9.70
1496.0  20823.92  2180.46  10.47
1506.0  20651.18  2293.42  11.11
1516.0  20455.77  2378.11  11.63
1526.0  20257.55  2475.45  12.22
1536.0  20096.43  2591.34  12.89
1546.0  19894.80  2715.72  13.65
1556.0  19746.35  2806.13  14.21
1566.0  19580.39  2896.43  14.79
1576.0  19339.02  3000.69  15.52
1586.0  19146.44  3080.46  16.09
1596.0  18933.87  3123.53  16.50
1606.0  18729.11  3182.37  16.99
1616.0  18504.97  3227.87  17.44
1626.0  18305.91  3273.28  17.88
1636.0  18069.01  3303.46  18.28
1646.0  17818.51  3288.95  18.46
1656.0  17552.22  3254.09  18.54
1666.0  17298.94  3209.29  18.55
1676.0  17076.69  3156.66  18.49
1686.0  17060.73  3121.84  18.30
1696.0  16861.46  3032.57  17.99
1706.0  16611.03  2919.13  17.57
1716.0  16237.09  2766.24  17.04
1726.0  15996.13  2636.22  16.48
1736.0  15803.28  2560.46  16.20
1746.0  15603.66  2479.77  15.89
1756.0  15326.26  2355.53  15.37
1766.0  15088.96  2261.07  14.98
1776.0  14960.65  2208.10  14.76
1786.0  14796.56  2154.51  14.56
1796.0  14599.28  2118.95  14.51
1806.0  14432.56  2104.32  14.58
1816.0  14220.87  2083.31  14.65
1826.0  13958.76  2048.87  14.68
1836.0  13625.22  1991.55  14.62
1846.0  13402.12  1933.75  14.43
1856.0  13193.00  1854.79  14.06
1866.0  13077.36  1586.02  12.13
1876.0  12862.98  1193.23  9.28
1886.0  12714.37  911.51  7.17
1896.0  12428.70  785.49  6.32
1906.0  11584.61  798.85  6.90
1916.0  11419.95  746.78  6.54
1926.0  11288.15  707.94  6.27
1936.0  11206.69  679.62  6.06
1946.0  11198.13  685.62  6.12
1956.0  11063.98  697.94  6.31
1966.0  11075.86  705.59  6.37
1976.0  10974.82  712.91  6.50
1986.0  10831.42  712.74  6.58
1996.0  10659.46  734.79  6.89
2006.0  10562.82  758.57  7.18
2016.0  10412.68  769.52  7.39
2026.0  10222.99  770.85  7.54
2036.0  10070.22  767.24  7.62
2046.0  9949.56  798.42  8.02
2056.0  9753.19  789.65  8.10
2066.0  9593.30  797.70  8.32
2076.0  9443.55  803.13  8.50
2086.0  9354.07  808.67  8.65
2096.0  9210.37  815.79  8.86
2106.0  9026.55  807.98  8.95
2116.0  8990.49  825.41  9.18
2126.0  8894.38  833.16  9.37
2136.0  8704.97  832.55  9.56
2146.0  8486.07  833.20  9.82
2156.0  8343.29  830.77  9.96
2166.0  8183.41  819.89  10.02
2176.0  8051.70  812.27  10.09
2186.0  7958.55  820.42  10.31
2196.0  7908.78  813.74  10.29
2206.0  7862.30  818.57  10.41
2216.0  7807.07  809.52  10.37
2226.0  7710.20  767.55  9.95
2236.0  7642.35  737.56  9.65
2246.0  7476.81  737.26  9.86
2256.0  7391.85  699.03  9.46
2266.0  7320.92  661.70  9.04
2276.0  7252.25  635.18  8.76
2286.0  7189.78  604.48  8.41
2296.0  7136.98  582.22  8.16
2306.0  6908.51  534.26  7.73
2316.0  6711.36  516.53  7.70
2326.0  6670.62  544.02  8.16
2336.0  6631.35  496.08  7.48
2346.0  6585.90  492.06  7.47
2356.0  6421.23  451.64  7.03
2366.0  6363.62  456.11  7.17
2376.0  6263.23  423.33  6.76
2386.0  6151.80  414.40  6.74
2396.0  6055.25  398.56  6.58
2406.0  5958.69  343.94  5.77
2416.0  5857.57  367.64  6.28
2426.0  5766.53  337.15  5.85
2436.0  5600.60  340.11  6.07
2446.0  5521.33  304.29  5.51
2456.0  5420.45  312.00  5.76
2466.0  5315.59  294.53  5.54
2476.0  5191.59  276.70  5.33
2486.0  5020.73  255.54  5.09
2496.0  4966.51  284.50  5.73
2506.0  5248.23  239.21  4.56
