/*** Spectra Vista SIG Data ***/
name= RS2.sig
comm= Resampled spectral data SIG file reprocesed for matching/overlap;Averaged Ref/Tar of files: RD4S4,RD4S5,RD4S6
data=
346.0  300.98  84.51  28.08
356.0  463.72  98.77  21.30
366.0  636.68  103.39  16.24
376.0  885.46  106.68  12.05
386.0  1110.03  102.34  9.22
396.0  1411.36  130.00  9.21
406.0  1724.09  120.52  6.99
416.0  2114.15  141.67  6.70
426.0  2411.20  145.05  6.02
436.0  2948.34  157.23  5.33
446.0  3434.75  179.75  5.23
456.0  3900.43  186.22  4.77
466.0  4655.33  218.93  4.70
476.0  5313.35  239.82  4.51
486.0  5742.38  241.45  4.20
496.0  6668.62  278.90  4.18
506.0  7414.48  321.63  4.34
516.0  7736.05  351.75  4.55
526.0  8614.28  399.97  4.64
536.0  9808.20  470.39  4.80
546.0  10787.45  542.14  5.03
556.0  10874.02  585.18  5.38
566.0  11620.97  714.08  6.14
576.0  12831.36  972.67  7.58
586.0  13800.83  1367.54  9.91
596.0  14570.41  1883.06  12.92
606.0  14819.23  2503.70  16.89
616.0  15785.73  3387.70  21.46
626.0  17422.26  4385.71  25.17
636.0  17172.91  5076.16  29.56
646.0  17313.58  5343.22  30.86
656.0  16958.91  5267.43  31.06
666.0  17952.46  4811.71  26.80
676.0  19107.41  4818.15  25.22
686.0  20744.30  7271.61  35.05
696.0  21302.17  11866.34  55.70
706.0  21485.54  14449.39  67.25
716.0  21106.17  15229.64  72.16
726.0  20444.90  15140.26  74.05
736.0  20072.78  14908.72  74.27
746.0  21269.54  15973.91  75.10
756.0  21715.17  16253.44  74.85
766.0  22630.30  17208.17  76.04
776.0  23222.43  17778.92  76.56
786.0  23351.40  18090.71  77.47
796.0  22865.98  17575.51  76.86
806.0  22206.84  17114.75  77.07
816.0  22105.85  17050.75  77.13
826.0  21970.10  16702.44  76.02
836.0  22256.75  16636.82  74.75
846.0  22764.08  17031.18  74.82
856.0  23134.08  17151.42  74.14
866.0  23280.52  17223.20  73.98
876.0  23337.25  17149.56  73.49
886.0  23426.87  16928.53  72.26
896.0  23219.08  16484.01  70.99
906.0  23187.39  16209.86  69.91
916.0  23019.76  15773.94  68.52
926.0  22972.36  15173.17  66.05
936.0  23654.47  14773.08  62.45
946.0  24257.59  14216.38  58.61
956.0  24792.19  13386.94  54.00
966.0  25310.85  13113.74  51.81
976.0  25805.97  13201.01  51.15
986.0  26419.21  13227.26  50.07
996.0  26647.14  13673.03  51.31
1006.0  26606.80  13998.02  52.61
1016.0  26773.23  14549.24  54.34
1026.0  26768.69  15019.67  56.11
1036.0  26610.23  15351.26  57.69
1046.0  26817.96  15920.66  59.37
1056.0  26974.32  16359.64  60.65
1066.0  27001.14  16545.47  61.28
1076.0  26907.02  16499.51  61.32
1086.0  27000.17  16385.97  60.69
1096.0  27021.97  16088.13  59.54
1106.0  26988.71  15714.64  58.23
1116.0  26827.19  15183.31  56.60
1126.0  26782.22  14439.35  53.91
1136.0  26806.48  13101.82  48.88
1146.0  26783.32  11544.39  43.10
1156.0  26689.55  10576.52  39.63
1166.0  26634.11  10203.80  38.31
1176.0  26621.63  10034.93  37.69
1186.0  26686.27  9918.46  37.17
1196.0  26376.31  9705.90  36.80
1206.0  26163.12  9629.63  36.81
1216.0  26024.95  9659.58  37.12
1226.0  25846.71  9756.50  37.75
1236.0  25752.82  9852.47  38.26
1246.0  25614.66  9915.24  38.71
1256.0  25475.83  9932.87  38.99
1266.0  25314.04  9912.07  39.16
1276.0  25373.13  9881.71  38.95
1286.0  25403.93  9737.33  38.33
1296.0  25257.97  9430.31  37.34
1306.0  24949.96  8935.98  35.82
1316.0  24591.02  8328.51  33.87
1326.0  24232.82  7644.94  31.55
1336.0  23855.58  6950.74  29.14
1346.0  23503.73  6353.01  27.03
1356.0  22973.78  5830.15  25.38
1366.0  22619.97  5324.19  23.54
1376.0  22547.29  4750.31  21.07
1386.0  22336.04  3814.71  17.08
1396.0  22099.31  2898.06  13.11
1406.0  21849.51  2274.15  10.41
1416.0  21811.39  1937.09  8.88
1426.0  21760.87  1768.83  8.13
1436.0  21688.98  1684.29  7.77
1446.0  21571.09  1640.87  7.61
1456.0  21448.73  1621.29  7.56
1466.0  21345.12  1634.02  7.66
1476.0  21146.04  1691.60  8.00
1486.0  21006.72  1796.80  8.55
1496.0  20823.92  1936.69  9.30
1506.0  20651.18  2028.83  9.82
1516.0  20455.77  2097.31  10.25
1526.0  20257.55  2192.90  10.83
1536.0  20096.43  2298.93  11.44
1546.0  19894.80  2410.08  12.11
1556.0  19746.35  2494.37  12.63
1566.0  19580.39  2586.34  13.21
1576.0  19339.02  2686.03  13.89
1586.0  19146.44  2758.59  14.41
1596.0  18933.87  2798.78  14.78
1606.0  18729.11  2848.88  15.21
1616.0  18504.97  2896.39  15.65
1626.0  18305.91  2940.98  16.07
1636.0  18069.01  2964.52  16.41
1646.0  17818.51  2957.56  16.60
1656.0  17552.22  2929.75  16.69
1666.0  17298.94  2896.30  16.74
1676.0  17076.69  2848.23  16.68
1686.0  17060.73  2819.11  16.52
1696.0  16861.46  2744.14  16.27
1706.0  16611.03  2646.15  15.93
1716.0  16237.09  2502.25  15.41
1726.0  15996.13  2384.77  14.91
1736.0  15803.28  2309.64  14.61
1746.0  15603.66  2226.55  14.27
1756.0  15326.26  2114.67  13.80
1766.0  15088.96  2017.00  13.37
1776.0  14960.65  1969.50  13.16
1786.0  14796.56  1921.66  12.99
1796.0  14599.28  1883.93  12.90
1806.0  14432.56  1864.47  12.92
1816.0  14220.87  1844.68  12.97
1826.0  13958.76  1816.72  13.01
1836.0  13625.22  1759.03  12.91
1846.0  13402.12  1706.45  12.73
1856.0  13193.00  1613.72  12.23
1866.0  13077.36  1385.85  10.60
1876.0  12862.98  1033.89  8.04
1886.0  12714.37  785.43  6.18
1896.0  12428.70  653.59  5.26
1906.0  11584.61  550.34  4.75
1916.0  11419.95  484.36  4.24
1926.0  11288.15  461.66  4.09
1936.0  11206.69  442.82  3.95
1946.0  11198.13  451.62  4.03
1956.0  11063.98  459.83  4.16
1966.0  11075.86  462.65  4.18
1976.0  10974.82  482.81  4.40
1986.0  10831.42  502.22  4.64
1996.0  10659.46  506.73  4.75
2006.0  10562.82  525.92  4.98
2016.0  10412.68  535.07  5.14
2026.0  10222.99  546.62  5.35
2036.0  10070.22  557.63  5.54
2046.0  9949.56  573.19  5.76
2056.0  9753.19  570.85  5.85
2066.0  9593.30  579.02  6.04
2076.0  9443.55  594.38  6.29
2086.0  9354.07  608.96  6.51
2096.0  9210.37  600.13  6.52
2106.0  9026.55  613.63  6.80
2116.0  8990.49  633.76  7.05
2126.0  8894.38  640.12  7.20
2136.0  8704.97  642.38  7.38
2146.0  8486.07  641.44  7.56
2156.0  8343.29  641.79  7.69
2166.0  8183.41  653.09  7.98
2176.0  8051.70  642.01  7.97
2186.0  7958.55  651.51  8.19
2196.0  7908.78  641.96  8.12
2206.0  7862.30  646.76  8.23
2216.0  7807.07  637.65  8.17
2226.0  7710.20  633.84  8.22
2236.0  7642.35  613.18  8.02
2246.0  7476.81  592.51  7.92
2256.0  7391.85  556.75  7.53
2266.0  7320.92  542.04  7.40
2276.0  7252.25  503.97  6.95
2286.0  7189.78  474.49  6.60
2296.0  7136.98  470.48  6.59
2306.0  6908.51  410.46  5.94
2316.0  6711.36  413.72  6.16
2326.0  6670.62  425.57  6.38
2336.0  6631.35  385.49  5.81
2346.0  6585.90  385.16  5.85
2356.0  6421.23  359.20  5.59
2366.0  6363.62  362.11  5.69
2376.0  6263.23  332.51  5.31
2386.0  6151.80  323.40  5.26
2396.0  6055.25  300.60  4.96
2406.0  5958.69  299.88  5.03
2416.0  5857.57  279.52  4.77
2426.0  5766.53  268.64  4.66
2436.0  5600.60  257.20  4.59
2446.0  5521.33  248.12  4.49
2456.0  5420.45  236.39  4.36
2466.0  5315.59  218.50  4.11
2476.0  5191.59  221.95  4.28
2486.0  5020.73  177.15  3.53
2496.0  4966.51  213.52  4.30
2506.0  5248.23  231.15  4.40
