/*** Spectra Vista SIG Data ***/
name= GS4.sig
comm= Resampled spectral data SIG file reprocesed for matching/overlap;Averaged Ref/Tar of files: GD5S10,GD5S11,GD5S12
data=
346.0  366.28  143.96  39.30
356.0  580.02  170.40  29.38
366.0  764.64  195.80  25.61
376.0  1054.72  222.58  21.10
386.0  1321.48  243.00  18.39
396.0  1668.03  329.70  19.77
406.0  2032.56  377.93  18.59
416.0  2484.09  492.09  19.81
426.0  2825.64  566.54  20.05
436.0  3449.00  693.71  20.11
446.0  4016.12  839.59  20.91
456.0  4559.32  998.85  21.91
466.0  5430.31  1274.06  23.46
476.0  6200.82  1467.07  23.66
486.0  6683.18  1665.46  24.92
496.0  7759.25  2193.97  28.28
506.0  8620.16  2837.41  32.92
516.0  8958.85  3425.73  38.24
526.0  9944.82  4335.14  43.59
536.0  11306.85  5395.97  47.72
546.0  12443.50  6317.95  50.77
556.0  12537.38  6676.36  53.25
566.0  13373.89  7420.31  55.48
576.0  14717.24  8437.93  57.33
586.0  15778.76  9291.66  58.89
596.0  16643.71  9919.48  59.60
606.0  16939.11  10191.38  60.16
616.0  18066.83  10879.11  60.22
626.0  19907.23  11446.64  57.50
636.0  19564.29  11829.47  60.46
646.0  19659.63  12278.18  62.45
656.0  19192.34  11726.87  61.10
666.0  20282.32  11078.42  54.62
676.0  21596.49  11143.97  51.60
686.0  23461.59  13377.06  57.02
696.0  24117.97  16785.46  69.60
706.0  24329.51  18891.48  77.65
716.0  23886.32  19418.73  81.30
726.0  23086.04  19209.75  83.21
736.0  22569.89  18984.40  84.11
746.0  23814.03  20447.45  85.86
756.0  24266.56  20879.97  86.04
766.0  25278.75  22160.46  87.66
776.0  25925.56  22951.47  88.53
786.0  26060.85  23367.09  89.66
796.0  25580.60  22788.09  89.08
806.0  24835.91  22249.70  89.59
816.0  24700.16  22206.60  89.90
826.0  24523.61  21827.92  89.01
836.0  24895.68  21948.50  88.16
846.0  25503.02  22578.06  88.53
856.0  25926.24  22871.53  88.22
866.0  26083.86  23035.00  88.31
876.0  26142.33  23069.53  88.25
886.0  26278.55  22916.81  87.21
896.0  26059.51  22422.47  86.04
906.0  26042.54  22152.36  85.06
916.0  25872.97  21624.76  83.58
926.0  25848.12  20983.93  81.18
936.0  26639.41  20654.52  77.53
946.0  27323.34  20151.03  73.75
956.0  27983.10  19292.45  68.94
966.0  28580.08  19154.15  67.02
976.0  29061.46  19227.38  66.16
986.0  29600.63  18678.17  63.10
996.0  29854.54  19508.33  65.34
1006.0  29773.67  19991.70  67.15
1016.0  29961.72  20650.09  68.92
1026.0  29958.18  21209.06  70.80
1036.0  29727.72  21539.26  72.46
1046.0  29945.01  22183.67  74.08
1056.0  30102.43  22725.59  75.49
1066.0  30105.99  22949.03  76.23
1076.0  29996.46  22878.41  76.27
1086.0  30084.70  22775.45  75.70
1096.0  30105.40  22453.71  74.58
1106.0  30068.25  22038.50  73.29
1116.0  29868.35  21387.21  71.60
1126.0  29809.45  20512.90  68.81
1136.0  29822.39  19002.23  63.72
1146.0  29809.91  17203.73  57.71
1156.0  29735.93  16116.25  54.20
1166.0  29672.84  15739.57  53.04
1176.0  29648.36  15594.94  52.60
1186.0  29704.47  15503.96  52.19
1196.0  29371.18  15248.80  51.92
1206.0  29121.56  15161.09  52.06
1216.0  28966.90  15182.51  52.41
1226.0  28785.60  15270.81  53.05
1236.0  28657.09  15345.44  53.55
1246.0  28484.90  15419.05  54.13
1256.0  28333.73  15397.45  54.34
1266.0  28154.79  15382.17  54.63
1276.0  28214.44  15344.78  54.39
1286.0  28244.54  15165.62  53.69
1296.0  28080.90  14752.91  52.54
1306.0  27749.33  14116.16  50.87
1316.0  27339.86  13329.81  48.76
1326.0  26940.91  12429.55  46.14
1336.0  26516.39  11493.39  43.34
1346.0  26100.07  10696.52  40.98
1356.0  25456.23  9934.80  39.03
1366.0  25028.25  9193.00  36.73
1376.0  24975.46  8469.81  33.91
1386.0  24740.24  7166.67  28.97
1396.0  24477.47  5938.21  24.26
1406.0  24216.63  5058.31  20.89
1416.0  24200.46  4612.44  19.06
1426.0  24158.30  4391.26  18.18
1436.0  24072.41  4278.97  17.78
1446.0  23956.60  4219.10  17.61
1456.0  23813.94  4189.53  17.59
1466.0  23700.42  4223.13  17.82
1476.0  23484.85  4295.55  18.29
1486.0  23331.72  4446.96  19.06
1496.0  23130.98  4631.82  20.02
1506.0  22945.06  4804.92  20.94
1516.0  22702.48  4934.54  21.74
1526.0  22502.83  5075.50  22.55
1536.0  22328.41  5216.83  23.36
1546.0  22104.85  5395.95  24.41
1556.0  21942.04  5484.70  25.00
1566.0  21758.45  5610.06  25.78
1576.0  21478.18  5733.75  26.70
1586.0  21278.88  5818.28  27.34
1596.0  21035.80  5855.16  27.83
1606.0  20794.20  5921.77  28.48
1616.0  20552.01  5972.16  29.06
1626.0  20323.44  6009.29  29.57
1636.0  20065.83  6022.34  30.01
1646.0  19774.62  5964.01  30.16
1656.0  19480.49  5888.71  30.23
1666.0  19194.30  5795.46  30.19
1676.0  18944.19  5703.69  30.11
1686.0  18931.40  5674.46  29.97
1696.0  18711.77  5560.15  29.71
1706.0  18450.64  5404.89  29.29
1716.0  18035.90  5177.85  28.71
1726.0  17776.34  4991.56  28.08
1736.0  17557.88  4851.69  27.63
1746.0  17326.38  4701.76  27.14
1756.0  17015.40  4492.98  26.41
1766.0  16759.66  4325.30  25.81
1776.0  16615.26  4230.88  25.46
1786.0  16444.78  4143.26  25.20
1796.0  16217.15  4066.60  25.08
1806.0  16004.96  4014.92  25.09
1816.0  15766.24  3959.59  25.11
1826.0  15451.08  3871.12  25.05
1836.0  15063.08  3760.16  24.96
1846.0  14855.31  3702.37  24.92
1856.0  14691.59  3674.58  25.01
1866.0  14522.35  3263.43  22.47
1876.0  14253.69  2568.47  18.02
1886.0  14110.56  2169.76  15.38
1896.0  13808.32  1969.37  14.26
1906.0  12793.00  1975.85  15.44
1916.0  12616.65  1789.70  14.19
1926.0  12521.17  1733.84  13.85
1936.0  12420.38  1701.26  13.70
1946.0  12399.95  1728.99  13.94
1956.0  12267.23  1739.08  14.18
1966.0  12255.75  1767.80  14.42
1976.0  12167.54  1786.14  14.68
1986.0  11984.38  1807.03  15.08
1996.0  11804.14  1835.65  15.55
2006.0  11722.12  1870.32  15.96
2016.0  11520.71  1877.97  16.30
2026.0  11331.47  1891.04  16.69
2036.0  11153.81  1894.32  16.98
2046.0  11015.78  1913.62  17.37
2056.0  10803.98  1914.74  17.72
2066.0  10617.95  1918.12  18.06
2076.0  10467.51  1915.43  18.30
2086.0  10367.19  1940.35  18.72
2096.0  10196.33  1933.75  18.97
2106.0  9977.58  1926.90  19.31
2116.0  9951.76  1966.05  19.76
2126.0  9831.36  1971.35  20.05
2136.0  9625.43  1954.69  20.31
2146.0  9388.88  1925.61  20.51
2156.0  9207.43  1899.04  20.63
2166.0  9064.45  1889.05  20.84
2176.0  8911.97  1855.93  20.83
2186.0  8812.47  1830.77  20.77
2196.0  8746.91  1793.25  20.50
2206.0  8717.01  1799.63  20.65
2216.0  8632.54  1774.10  20.55
2226.0  8558.94  1745.69  20.40
2236.0  8436.18  1677.30  19.88
2246.0  8282.68  1635.99  19.75
2256.0  8199.17  1586.69  19.35
2266.0  8120.13  1531.34  18.86
2276.0  8038.92  1470.72  18.29
2286.0  7958.54  1425.25  17.91
2296.0  7926.13  1373.34  17.33
2306.0  7675.85  1286.09  16.75
2316.0  7429.53  1233.66  16.60
2326.0  7404.63  1229.29  16.60
2336.0  7366.33  1207.64  16.39
2346.0  7276.21  1152.40  15.84
2356.0  7132.49  1114.51  15.63
2366.0  7038.59  1081.44  15.36
2376.0  6898.87  1021.23  14.80
2386.0  6807.05  986.41  14.49
2396.0  6685.66  955.39  14.29
2406.0  6574.61  944.78  14.37
2416.0  6463.16  904.10  13.99
2426.0  6354.84  853.37  13.43
2436.0  6210.96  825.52  13.29
2446.0  6104.75  801.89  13.14
2456.0  6017.59  786.50  13.07
2466.0  5854.98  711.20  12.15
2476.0  5727.20  717.42  12.53
2486.0  5577.85  643.12  11.53
2496.0  5547.28  668.24  12.05
2506.0  5804.94  629.87  10.85
