/*** Spectra Vista SIG Data ***/
name= GS1.sig
comm= Resampled spectral data SIG file reprocesed for matching/overlap;Averaged Ref/Tar of files: GD5S1,GD5S2,GD5S3
data=
346.0  366.28  171.57  46.84
356.0  580.02  213.54  36.82
366.0  764.64  245.22  32.07
376.0  1054.72  289.81  27.48
386.0  1321.48  323.03  24.44
396.0  1668.03  435.71  26.12
406.0  2032.56  503.38  24.77
416.0  2484.09  635.17  25.57
426.0  2825.64  719.96  25.48
436.0  3449.00  878.50  25.47
446.0  4016.12  1053.25  26.23
456.0  4559.32  1257.38  27.58
466.0  5430.31  1601.84  29.50
476.0  6200.82  1843.78  29.73
486.0  6683.18  2078.55  31.10
496.0  7759.25  2719.55  35.05
506.0  8620.16  3493.88  40.53
516.0  8958.85  4219.77  47.10
526.0  9944.82  5354.46  53.84
536.0  11306.85  6706.51  59.31
546.0  12443.50  7870.34  63.25
556.0  12537.38  8321.27  66.37
566.0  13373.89  9258.45  69.23
576.0  14717.24  10537.99  71.60
586.0  15778.76  11593.40  73.47
596.0  16643.71  12373.35  74.34
606.0  16939.11  12686.28  74.89
616.0  18066.83  13531.06  74.89
626.0  19907.23  14915.35  74.92
636.0  19564.29  14517.60  74.20
646.0  19659.63  15064.56  76.63
656.0  19192.34  14443.52  75.26
666.0  20282.32  13654.13  67.32
676.0  21596.49  13747.58  63.66
686.0  23461.59  16411.18  69.95
696.0  24117.97  20559.54  85.25
706.0  24329.51  23005.80  94.56
716.0  23886.32  23632.95  98.94
726.0  23086.04  23254.73  100.73
736.0  22569.89  22910.83  101.51
746.0  23814.03  24549.15  103.09
756.0  24266.56  24981.31  102.95
766.0  25278.75  26453.24  104.65
776.0  25925.56  27342.64  105.47
786.0  26060.85  27798.89  106.67
796.0  25580.60  27145.97  106.12
806.0  24835.91  26473.99  106.60
816.0  24700.16  26373.55  106.77
826.0  24523.61  25932.91  105.75
836.0  24895.68  25974.52  104.33
846.0  25503.02  26655.15  104.52
856.0  25926.24  27002.23  104.15
866.0  26083.86  27130.26  104.01
876.0  26142.33  27123.68  103.75
886.0  26278.55  26942.25  102.53
896.0  26059.51  26352.89  101.13
906.0  26042.54  26004.11  99.85
916.0  25872.97  25411.13  98.22
926.0  25848.12  24674.25  95.46
936.0  26639.41  24247.50  91.02
946.0  27323.34  23623.87  86.46
956.0  27983.10  22698.57  81.12
966.0  28580.08  22500.06  78.73
976.0  29061.46  22897.74  78.79
986.0  29600.63  22359.32  75.54
996.0  29854.54  23606.40  79.07
1006.0  29773.67  24179.74  81.21
1016.0  29961.72  24966.77  83.33
1026.0  29958.18  25656.46  85.64
1036.0  29727.72  26081.22  87.73
1046.0  29945.01  26838.92  89.63
1056.0  30102.43  27460.41  91.22
1066.0  30105.99  27717.77  92.07
1076.0  29996.46  27622.41  92.09
1086.0  30084.70  27493.06  91.39
1096.0  30105.40  27129.12  90.11
1106.0  30068.25  26579.07  88.40
1116.0  29868.35  25859.73  86.58
1126.0  29809.45  24852.19  83.37
1136.0  29822.39  23112.92  77.50
1146.0  29809.91  21073.32  70.69
1156.0  29735.93  19789.17  66.55
1166.0  29672.84  19343.99  65.19
1176.0  29648.36  19178.85  64.69
1186.0  29704.47  19086.17  64.25
1196.0  29371.18  18756.94  63.86
1206.0  29121.56  18613.75  63.92
1216.0  28966.90  18637.94  64.34
1226.0  28785.60  18723.70  65.05
1236.0  28657.09  18845.34  65.76
1246.0  28484.90  18879.87  66.28
1256.0  28333.73  18908.74  66.74
1266.0  28154.79  18789.84  66.74
1276.0  28214.44  18807.83  66.66
1286.0  28244.54  18609.43  65.89
1296.0  28080.90  18130.72  64.57
1306.0  27749.33  17382.35  62.64
1316.0  27339.86  16473.55  60.25
1326.0  26940.91  15447.09  57.34
1336.0  26516.39  14410.26  54.34
1346.0  26100.07  13451.94  51.54
1356.0  25456.23  12537.46  49.25
1366.0  25028.25  11748.27  46.94
1376.0  24975.46  10862.33  43.49
1386.0  24740.24  9391.74  37.96
1396.0  24477.47  7921.59  32.36
1406.0  24216.63  6857.53  28.32
1416.0  24200.46  6301.03  26.04
1426.0  24158.30  6021.85  24.93
1436.0  24072.41  5884.43  24.44
1446.0  23956.60  5807.21  24.24
1456.0  23813.94  5778.63  24.27
1466.0  23700.42  5822.84  24.57
1476.0  23484.85  5920.50  25.21
1486.0  23331.72  6116.80  26.22
1496.0  23130.98  6348.24  27.44
1506.0  22945.06  6546.34  28.53
1516.0  22702.48  6707.48  29.55
1526.0  22502.83  6891.41  30.62
1536.0  22328.41  7073.74  31.68
1546.0  22104.85  7219.53  32.66
1556.0  21942.04  7418.19  33.81
1566.0  21758.45  7490.54  34.43
1576.0  21478.18  7664.04  35.68
1586.0  21278.88  7769.43  36.51
1596.0  21035.80  7820.74  37.18
1606.0  20794.20  7846.57  37.73
1616.0  20552.01  7928.72  38.58
1626.0  20323.44  7968.20  39.21
1636.0  20065.83  7973.22  39.74
1646.0  19774.62  7903.73  39.97
1656.0  19480.49  7806.21  40.07
1666.0  19194.30  7732.95  40.29
1676.0  18944.19  7642.25  40.34
1686.0  18931.40  7606.35  40.18
1696.0  18711.77  7452.99  39.83
1706.0  18450.64  7245.88  39.27
1716.0  18035.90  6951.93  38.54
1726.0  17776.34  6718.98  37.80
1736.0  17557.88  6555.42  37.34
1746.0  17326.38  6377.41  36.81
1756.0  17015.40  6128.60  36.02
1766.0  16759.66  5923.14  35.34
1776.0  16615.26  5810.56  34.97
1786.0  16444.78  5699.70  34.66
1796.0  16217.15  5604.61  34.56
1806.0  16004.96  5544.65  34.64
1816.0  15766.24  5474.13  34.72
1826.0  15451.08  5360.18  34.69
1836.0  15063.08  5210.07  34.59
1846.0  14855.31  5117.46  34.45
1856.0  14691.59  4984.59  33.93
1866.0  14522.35  4499.25  30.98
1876.0  14253.69  3726.12  26.14
1886.0  14110.56  3257.58  23.09
1896.0  13808.32  2970.98  21.52
1906.0  12793.00  2017.80  15.77
1916.0  12616.65  1935.63  15.34
1926.0  12521.17  1887.06  15.07
1936.0  12420.38  1879.87  15.14
1946.0  12399.95  1910.30  15.41
1956.0  12267.23  1927.27  15.71
1966.0  12255.75  1960.16  15.99
1976.0  12167.54  1988.28  16.34
1986.0  11984.38  2018.66  16.84
1996.0  11804.14  2049.18  17.36
2006.0  11722.12  2097.18  17.89
2016.0  11520.71  2127.57  18.47
2026.0  11331.47  2150.23  18.98
2036.0  11153.81  2163.13  19.39
2046.0  11015.78  2183.30  19.82
2056.0  10803.98  2186.26  20.24
2066.0  10617.95  2198.35  20.70
2076.0  10467.51  2211.50  21.13
2086.0  10367.19  2233.13  21.54
2096.0  10196.33  2233.19  21.90
2106.0  9977.58  2236.89  22.42
2116.0  9951.76  2285.06  22.96
2126.0  9831.36  2285.25  23.24
2136.0  9625.43  2296.18  23.86
2146.0  9388.88  2262.43  24.10
2156.0  9207.43  2242.71  24.36
2166.0  9064.45  2215.04  24.44
2176.0  8911.97  2177.11  24.43
2186.0  8812.47  2162.09  24.53
2196.0  8746.91  2173.04  24.84
2206.0  8717.01  2165.34  24.84
2216.0  8632.54  2135.07  24.73
2226.0  8558.94  2063.11  24.10
2236.0  8436.18  2043.01  24.22
2246.0  8282.68  1994.11  24.08
2256.0  8199.17  1927.42  23.51
2266.0  8120.13  1853.85  22.83
2276.0  8038.92  1813.60  22.56
2286.0  7958.54  1763.02  22.15
2296.0  7926.13  1700.58  21.46
2306.0  7675.85  1590.54  20.72
2316.0  7429.53  1543.36  20.77
2326.0  7404.63  1571.49  21.22
2336.0  7366.33  1541.95  20.93
2346.0  7276.21  1477.37  20.30
2356.0  7132.49  1433.99  20.10
2366.0  7038.59  1416.09  20.12
2376.0  6898.87  1360.53  19.72
2386.0  6807.05  1314.51  19.31
2396.0  6685.66  1281.11  19.16
2406.0  6574.61  1241.96  18.89
2416.0  6463.16  1193.33  18.46
2426.0  6354.84  1195.08  18.81
2436.0  6210.96  1142.06  18.39
2446.0  6104.75  1093.76  17.92
2456.0  6017.59  1074.33  17.85
2466.0  5854.98  1031.88  17.62
2476.0  5727.20  1016.59  17.75
2486.0  5577.85  974.84  17.48
2496.0  5547.28  931.52  16.79
2506.0  5804.94  966.98  16.66
