/*** Spectra Vista SIG Data ***/
name= GT2.sig
comm= Resampled spectral data SIG file reprocesed for matching/overlap;Averaged Ref/Tar of files: GD5T4,GD5T5,GD5T6
data=
346.0  366.28  81.75  22.32
356.0  580.02  90.88  15.67
366.0  764.64  98.77  12.92
376.0  1054.72  99.91  9.47
386.0  1321.48  93.67  7.09
396.0  1668.03  119.47  7.16
406.0  2032.56  116.41  5.73
416.0  2484.09  148.26  5.97
426.0  2825.64  162.79  5.76
436.0  3449.00  187.84  5.45
446.0  4016.12  232.14  5.78
456.0  4559.32  279.43  6.13
466.0  5430.31  363.08  6.69
476.0  6200.82  420.14  6.78
486.0  6683.18  483.20  7.23
496.0  7759.25  671.74  8.66
506.0  8620.16  963.07  11.17
516.0  8958.85  1301.22  14.52
526.0  9944.82  1800.06  18.10
536.0  11306.85  2360.79  20.88
546.0  12443.50  2840.70  22.83
556.0  12537.38  3071.80  24.50
566.0  13373.89  3410.38  25.50
576.0  14717.24  3799.43  25.82
586.0  15778.76  4105.00  26.02
596.0  16643.71  4299.86  25.83
606.0  16939.11  4343.13  25.64
616.0  18066.83  4490.95  24.86
626.0  19907.23  4479.82  22.50
636.0  19564.29  4709.64  24.07
646.0  19659.63  4709.50  23.96
656.0  19192.34  4002.31  20.85
666.0  20282.32  3383.01  16.68
676.0  21596.49  3160.56  14.63
686.0  23461.59  4223.32  18.00
696.0  24117.97  6996.49  29.01
706.0  24329.51  9446.88  38.83
716.0  23886.32  10599.52  44.37
726.0  23086.04  10950.46  47.43
736.0  22569.89  10995.97  48.72
746.0  23814.03  11927.16  50.08
756.0  24266.56  12154.35  50.09
766.0  25278.75  12957.25  51.26
776.0  25925.56  13449.27  51.88
786.0  26060.85  13746.70  52.75
796.0  25580.60  13439.19  52.54
806.0  24835.91  13171.87  53.04
816.0  24700.16  13140.03  53.20
826.0  24523.61  12845.24  52.38
836.0  24895.68  12803.33  51.43
846.0  25503.02  13116.08  51.43
856.0  25926.24  13248.69  51.10
866.0  26083.86  13341.25  51.15
876.0  26142.33  13337.79  51.02
886.0  26278.55  13210.76  50.27
896.0  26059.51  12904.79  49.52
906.0  26042.54  12705.20  48.79
916.0  25872.97  12327.56  47.65
926.0  25848.12  11828.30  45.76
936.0  26639.41  11454.12  43.00
946.0  27323.34  10921.91  39.97
956.0  27983.10  10257.95  36.66
966.0  28580.08  10056.72  35.19
976.0  29061.46  10016.16  34.47
986.0  29600.63  10411.07  35.17
996.0  29854.54  11295.88  37.84
1006.0  29773.67  11788.30  39.59
1016.0  29961.72  12249.04  40.88
1026.0  29958.18  12740.89  42.53
1036.0  29727.72  13063.35  43.94
1046.0  29945.01  13531.53  45.19
1056.0  30102.43  13946.52  46.33
1066.0  30105.99  14133.01  46.94
1076.0  29996.46  14076.92  46.93
1086.0  30084.70  13969.37  46.43
1096.0  30105.40  13715.13  45.56
1106.0  30068.25  13353.40  44.41
1116.0  29868.35  12861.14  43.06
1126.0  29809.45  12227.37  41.02
1136.0  29822.39  11111.15  37.26
1146.0  29809.91  9802.82  32.88
1156.0  29735.93  8960.27  30.13
1166.0  29672.84  8636.54  29.11
1176.0  29648.36  8528.22  28.76
1186.0  29704.47  8459.81  28.48
1196.0  29371.18  8296.63  28.25
1206.0  29121.56  8217.58  28.22
1216.0  28966.90  8222.60  28.39
1226.0  28785.60  8275.77  28.75
1236.0  28657.09  8346.61  29.13
1246.0  28484.90  8396.68  29.48
1256.0  28333.73  8406.55  29.67
1266.0  28154.79  8373.21  29.74
1276.0  28214.44  8343.17  29.57
1286.0  28244.54  8213.09  29.08
1296.0  28080.90  7950.36  28.31
1306.0  27749.33  7548.12  27.20
1316.0  27339.86  7047.62  25.78
1326.0  26940.91  6469.51  24.01
1336.0  26516.39  5885.83  22.20
1346.0  26100.07  5379.25  20.61
1356.0  25456.23  4945.68  19.43
1366.0  25028.25  4490.12  17.94
1376.0  24975.46  4032.15  16.14
1386.0  24740.24  3284.93  13.28
1396.0  24477.47  2535.92  10.36
1406.0  24216.63  2007.37  8.29
1416.0  24200.46  1713.26  7.08
1426.0  24158.30  1570.34  6.50
1436.0  24072.41  1495.63  6.21
1446.0  23956.60  1462.70  6.11
1456.0  23813.94  1444.82  6.07
1466.0  23700.42  1457.47  6.15
1476.0  23484.85  1504.43  6.41
1486.0  23331.72  1596.44  6.84
1496.0  23130.98  1715.80  7.42
1506.0  22945.06  1804.73  7.87
1516.0  22702.48  1877.45  8.27
1526.0  22502.83  1958.77  8.70
1536.0  22328.41  2050.58  9.18
1546.0  22104.85  2131.19  9.64
1556.0  21942.04  2205.01  10.05
1566.0  21758.45  2297.40  10.56
1576.0  21478.18  2384.39  11.10
1586.0  21278.88  2442.32  11.48
1596.0  21035.80  2479.94  11.79
1606.0  20794.20  2523.24  12.13
1616.0  20552.01  2558.50  12.45
1626.0  20323.44  2591.88  12.75
1636.0  20065.83  2605.59  12.99
1646.0  19774.62  2597.42  13.14
1656.0  19480.49  2572.68  13.21
1666.0  19194.30  2538.85  13.23
1676.0  18944.19  2496.77  13.18
1686.0  18931.40  2471.17  13.05
1696.0  18711.77  2411.10  12.89
1706.0  18450.64  2321.58  12.58
1716.0  18035.90  2206.08  12.23
1726.0  17776.34  2104.93  11.84
1736.0  17557.88  2028.93  11.56
1746.0  17326.38  1954.08  11.28
1756.0  17015.40  1856.07  10.91
1766.0  16759.66  1772.72  10.58
1776.0  16615.26  1723.05  10.37
1786.0  16444.78  1673.25  10.17
1796.0  16217.15  1642.55  10.13
1806.0  16004.96  1616.09  10.10
1816.0  15766.24  1599.66  10.15
1826.0  15451.08  1564.57  10.13
1836.0  15063.08  1515.60  10.06
1846.0  14855.31  1468.53  9.89
1856.0  14691.59  1416.20  9.64
1866.0  14522.35  1213.78  8.36
1876.0  14253.69  920.96  6.46
1886.0  14110.56  697.37  4.94
1896.0  13808.32  573.07  4.15
1906.0  12793.00  419.43  3.28
1916.0  12616.65  363.54  2.88
1926.0  12521.17  393.86  3.15
1936.0  12420.38  396.27  3.19
1946.0  12399.95  399.01  3.22
1956.0  12267.23  431.49  3.52
1966.0  12255.75  443.18  3.62
1976.0  12167.54  481.61  3.96
1986.0  11984.38  492.38  4.11
1996.0  11804.14  521.43  4.42
2006.0  11722.12  547.47  4.67
2016.0  11520.71  570.75  4.95
2026.0  11331.47  590.28  5.21
2036.0  11153.81  591.07  5.30
2046.0  11015.78  608.19  5.52
2056.0  10803.98  634.24  5.87
2066.0  10617.95  629.23  5.93
2076.0  10467.51  654.88  6.26
2086.0  10367.19  654.75  6.32
2096.0  10196.33  683.38  6.70
2106.0  9977.58  688.30  6.90
2116.0  9951.76  704.81  7.08
2126.0  9831.36  718.36  7.31
2136.0  9625.43  732.29  7.61
2146.0  9388.88  729.35  7.77
2156.0  9207.43  718.22  7.80
2166.0  9064.45  703.46  7.76
2176.0  8911.97  691.78  7.76
2186.0  8812.47  692.69  7.86
2196.0  8746.91  704.84  8.06
2206.0  8717.01  695.93  7.98
2216.0  8632.54  694.13  8.04
2226.0  8558.94  652.35  7.62
2236.0  8436.18  615.59  7.30
2246.0  8282.68  615.77  7.43
2256.0  8199.17  573.13  6.99
2266.0  8120.13  543.37  6.69
2276.0  8038.92  518.90  6.45
2286.0  7958.54  489.72  6.15
2296.0  7926.13  442.59  5.58
2306.0  7675.85  413.40  5.39
2316.0  7429.53  392.93  5.29
2326.0  7404.63  398.37  5.38
2336.0  7366.33  353.72  4.80
2346.0  7276.21  341.73  4.70
2356.0  7132.49  310.83  4.36
2366.0  7038.59  319.23  4.54
2376.0  6898.87  289.44  4.20
2386.0  6807.05  273.70  4.02
2396.0  6685.66  277.11  4.14
2406.0  6574.61  241.40  3.67
2416.0  6463.16  239.36  3.70
2426.0  6354.84  217.00  3.41
2436.0  6210.96  210.58  3.39
2446.0  6104.75  162.90  2.67
2456.0  6017.59  199.67  3.32
2466.0  5854.98  173.52  2.96
2476.0  5727.20  172.78  3.02
2486.0  5577.85  109.52  1.96
2496.0  5547.28  120.20  2.17
2506.0  5804.94  125.48  2.16
