/*** Spectra Vista SIG Data ***/
name= RS4.sig
comm= Resampled spectral data SIG file reprocesed for matching/overlap;Averaged Ref/Tar of files: RD5S10,RD5S11,RD5S12
data=
346.0  366.28  140.99  38.49
356.0  580.02  177.30  30.57
366.0  764.64  204.64  26.76
376.0  1054.72  232.39  22.03
386.0  1321.48  243.34  18.41
396.0  1668.03  292.16  17.52
406.0  2032.56  305.07  15.01
416.0  2484.09  361.31  14.54
426.0  2825.64  390.90  13.83
436.0  3449.00  452.31  13.11
446.0  4016.12  513.47  12.79
456.0  4559.32  557.70  12.23
466.0  5430.31  657.77  12.11
476.0  6200.82  753.40  12.15
486.0  6683.18  774.44  11.59
496.0  7759.25  889.51  11.46
506.0  8620.16  1004.12  11.65
516.0  8958.85  1078.06  12.03
526.0  9944.82  1249.26  12.56
536.0  11306.85  1498.61  13.25
546.0  12443.50  1712.71  13.76
556.0  12537.38  1787.23  14.26
566.0  13373.89  2035.41  15.22
576.0  14717.24  2490.20  16.92
586.0  15778.76  3092.53  19.60
596.0  16643.71  3869.70  23.25
606.0  16939.11  4815.18  28.43
616.0  18066.83  6368.47  35.25
626.0  19907.23  8687.35  43.64
636.0  19564.29  9997.65  51.10
646.0  19659.63  10706.32  54.46
656.0  19192.34  11323.45  59.00
666.0  20282.32  11891.51  58.63
676.0  21596.49  13054.81  60.45
686.0  23461.59  17496.27  74.57
696.0  24117.97  21973.27  91.11
706.0  24329.51  23862.56  98.08
716.0  23886.32  24229.74  101.44
726.0  23086.04  23850.74  103.31
736.0  22569.89  23605.15  104.59
746.0  23814.03  25335.21  106.39
756.0  24266.56  25956.51  106.96
766.0  25278.75  27449.08  108.59
776.0  25925.56  28434.47  109.68
786.0  26060.85  28928.92  111.01
796.0  25580.60  28427.77  111.13
806.0  24835.91  27821.58  112.02
816.0  24700.16  27751.21  112.35
826.0  24523.61  27404.03  111.75
836.0  24895.68  27525.13  110.56
846.0  25503.02  28188.91  110.53
856.0  25926.24  28578.18  110.23
866.0  26083.86  28707.86  110.06
876.0  26142.33  28693.58  109.76
886.0  26278.55  28512.42  108.50
896.0  26059.51  27895.93  107.05
906.0  26042.54  27543.39  105.76
916.0  25872.97  26931.97  104.09
926.0  25848.12  26143.03  101.14
936.0  26639.41  25684.70  96.42
946.0  27323.34  25020.04  91.57
956.0  27983.10  23942.32  85.56
966.0  28580.08  23646.78  82.74
976.0  29061.46  24076.06  82.85
986.0  29600.63  21785.75  73.60
996.0  29854.54  22790.72  76.34
1006.0  29773.67  23353.77  78.44
1016.0  29961.72  24225.68  80.86
1026.0  29958.18  24971.62  83.35
1036.0  29727.72  25492.56  85.75
1046.0  29945.01  26310.15  87.86
1056.0  30102.43  26956.44  89.55
1066.0  30105.99  27238.68  90.48
1076.0  29996.46  27168.29  90.57
1086.0  30084.70  27037.34  89.87
1096.0  30105.40  26651.57  88.53
1106.0  30068.25  26068.35  86.70
1116.0  29868.35  25284.81  84.65
1126.0  29809.45  24227.28  81.27
1136.0  29822.39  22307.19  74.80
1146.0  29809.91  20032.51  67.20
1156.0  29735.93  18559.79  62.42
1166.0  29672.84  17987.03  60.62
1176.0  29648.36  17752.71  59.88
1186.0  29704.47  17606.76  59.27
1196.0  29371.18  17272.03  58.81
1206.0  29121.56  17125.37  58.81
1216.0  28966.90  17179.23  59.31
1226.0  28785.60  17325.77  60.19
1236.0  28657.09  17483.21  61.01
1246.0  28484.90  17571.36  61.69
1256.0  28333.73  17598.92  62.11
1266.0  28154.79  17527.15  62.25
1276.0  28214.44  17486.74  61.98
1286.0  28244.54  17291.72  61.22
1296.0  28080.90  16812.17  59.87
1306.0  27749.33  16039.76  57.80
1316.0  27339.86  15080.34  55.16
1326.0  26940.91  13995.27  51.95
1336.0  26516.39  12890.95  48.62
1346.0  26100.07  11886.24  45.54
1356.0  25456.23  10890.93  42.78
1366.0  25028.25  10089.30  40.31
1376.0  24975.46  9164.36  36.69
1386.0  24740.24  7672.80  31.01
1396.0  24477.47  6158.83  25.16
1406.0  24216.63  5075.89  20.96
1416.0  24200.46  4497.88  18.59
1426.0  24158.30  4208.66  17.42
1436.0  24072.41  4075.49  16.93
1446.0  23956.60  4013.88  16.75
1456.0  23813.94  3982.22  16.72
1466.0  23700.42  4021.82  16.97
1476.0  23484.85  4123.40  17.56
1486.0  23331.72  4321.64  18.52
1496.0  23130.98  4560.13  19.71
1506.0  22945.06  4750.98  20.71
1516.0  22702.48  4890.46  21.54
1526.0  22502.83  5054.07  22.46
1536.0  22328.41  5250.51  23.51
1546.0  22104.85  5419.16  24.52
1556.0  21942.04  5576.72  25.42
1566.0  21758.45  5721.77  26.30
1576.0  21478.18  5877.28  27.36
1586.0  21278.88  5995.59  28.18
1596.0  21035.80  6073.77  28.87
1606.0  20794.20  6148.89  29.57
1616.0  20552.01  6212.85  30.23
1626.0  20323.44  6279.97  30.90
1636.0  20065.83  6310.95  31.45
1646.0  19774.62  6298.14  31.85
1656.0  19480.49  6259.15  32.13
1666.0  19194.30  6190.37  32.25
1676.0  18944.19  6105.25  32.23
1686.0  18931.40  6042.25  31.92
1696.0  18711.77  5892.75  31.49
1706.0  18450.64  5690.43  30.84
1716.0  18035.90  5421.65  30.06
1726.0  17776.34  5198.24  29.24
1736.0  17557.88  5066.64  28.86
1746.0  17326.38  4918.16  28.39
1756.0  17015.40  4708.13  27.67
1766.0  16759.66  4534.98  27.06
1776.0  16615.26  4444.40  26.75
1786.0  16444.78  4348.21  26.44
1796.0  16217.15  4266.35  26.31
1806.0  16004.96  4216.16  26.34
1816.0  15766.24  4144.17  26.29
1826.0  15451.08  4062.15  26.29
1836.0  15063.08  3928.49  26.08
1846.0  14855.31  3818.21  25.70
1856.0  14691.59  3645.43  24.81
1866.0  14522.35  3268.07  22.50
1876.0  14253.69  2703.06  18.96
1886.0  14110.56  2250.71  15.95
1896.0  13808.32  1964.66  14.23
1906.0  12793.00  1052.02  8.22
1916.0  12616.65  1047.70  8.30
1926.0  12521.17  1022.52  8.17
1936.0  12420.38  1012.02  8.15
1946.0  12399.95  1025.87  8.27
1956.0  12267.23  1046.54  8.53
1966.0  12255.75  1072.93  8.75
1976.0  12167.54  1085.95  8.92
1986.0  11984.38  1101.41  9.19
1996.0  11804.14  1144.34  9.69
2006.0  11722.12  1169.36  9.98
2016.0  11520.71  1197.79  10.40
2026.0  11331.47  1209.33  10.67
2036.0  11153.81  1227.51  11.01
2046.0  11015.78  1247.26  11.32
2056.0  10803.98  1248.45  11.56
2066.0  10617.95  1243.05  11.71
2076.0  10467.51  1263.43  12.07
2086.0  10367.19  1290.23  12.45
2096.0  10196.33  1293.46  12.69
2106.0  9977.58  1300.47  13.03
2116.0  9951.76  1327.20  13.34
2126.0  9831.36  1343.24  13.66
2136.0  9625.43  1328.27  13.80
2146.0  9388.88  1341.72  14.29
2156.0  9207.43  1348.02  14.64
2166.0  9064.45  1317.64  14.54
2176.0  8911.97  1334.80  14.98
2186.0  8812.47  1327.87  15.07
2196.0  8746.91  1327.63  15.18
2206.0  8717.01  1323.30  15.18
2216.0  8632.54  1324.23  15.34
2226.0  8558.94  1289.98  15.07
2236.0  8436.18  1250.45  14.82
2246.0  8282.68  1203.22  14.53
2256.0  8199.17  1156.56  14.11
2266.0  8120.13  1112.03  13.69
2276.0  8038.92  1069.38  13.30
2286.0  7958.54  1032.24  12.97
2296.0  7926.13  990.38  12.50
2306.0  7675.85  911.73  11.88
2316.0  7429.53  882.81  11.88
2326.0  7404.63  898.90  12.14
2336.0  7366.33  878.84  11.93
2346.0  7276.21  837.69  11.51
2356.0  7132.49  811.82  11.38
2366.0  7038.59  797.39  11.33
2376.0  6898.87  766.88  11.12
2386.0  6807.05  740.87  10.88
2396.0  6685.66  717.21  10.73
2406.0  6574.61  704.55  10.72
2416.0  6463.16  685.39  10.60
2426.0  6354.84  643.34  10.12
2436.0  6210.96  642.24  10.34
2446.0  6104.75  602.02  9.86
2456.0  6017.59  602.68  10.02
2466.0  5854.98  552.24  9.43
2476.0  5727.20  574.40  10.03
2486.0  5577.85  523.32  9.38
2496.0  5547.28  504.05  9.09
2506.0  5804.94  522.89  9.01
