/*** Spectra Vista SIG Data ***/
name= RS1.sig
comm= Resampled spectral data SIG file reprocesed for matching/overlap;Averaged Ref/Tar of files: RD5S1,RD5S2,RD5S3
data=
346.0  366.28  150.23  41.02
356.0  580.02  187.57  32.34
366.0  764.64  214.05  27.99
376.0  1054.72  240.95  22.84
386.0  1321.48  250.65  18.97
396.0  1668.03  309.43  18.55
406.0  2032.56  326.65  16.07
416.0  2484.09  387.06  15.58
426.0  2825.64  421.04  14.90
436.0  3449.00  482.03  13.98
446.0  4016.12  546.78  13.61
456.0  4559.32  604.57  13.26
466.0  5430.31  711.57  13.10
476.0  6200.82  828.96  13.37
486.0  6683.18  838.65  12.55
496.0  7759.25  982.69  12.66
506.0  8620.16  1163.70  13.50
516.0  8958.85  1344.66  15.01
526.0  9944.82  1644.30  16.53
536.0  11306.85  2022.85  17.89
546.0  12443.50  2369.61  19.04
556.0  12537.38  2517.08  20.08
566.0  13373.89  2907.07  21.74
576.0  14717.24  3563.55  24.21
586.0  15778.76  4387.84  27.81
596.0  16643.71  5408.16  32.49
606.0  16939.11  6502.79  38.39
616.0  18066.83  8148.48  45.10
626.0  19907.23  10567.81  53.09
636.0  19564.29  11764.09  60.13
646.0  19659.63  11694.87  59.49
656.0  19192.34  12010.44  62.58
666.0  20282.32  12225.62  60.28
676.0  21596.49  13087.15  60.60
686.0  23461.59  17764.12  75.72
696.0  24117.97  23180.65  96.11
706.0  24329.51  25472.49  104.70
716.0  23886.32  25831.54  108.14
726.0  23086.04  25328.89  109.72
736.0  22569.89  24862.85  110.16
746.0  23814.03  26480.67  111.20
756.0  24266.56  27075.63  111.58
766.0  25278.75  28447.35  112.53
776.0  25925.56  29378.64  113.32
786.0  26060.85  29789.34  114.31
796.0  25580.60  29299.51  114.54
806.0  24835.91  28595.68  115.14
816.0  24700.16  28437.19  115.13
826.0  24523.61  28009.51  114.21
836.0  24895.68  28011.32  112.51
846.0  25503.02  28571.58  112.03
856.0  25926.24  28929.94  111.59
866.0  26083.86  28988.57  111.14
876.0  26142.33  28907.87  110.58
886.0  26278.55  28693.03  109.19
896.0  26059.51  28042.16  107.61
906.0  26042.54  27630.53  106.10
916.0  25872.97  26922.12  104.06
926.0  25848.12  26061.51  100.83
936.0  26639.41  25446.61  95.52
946.0  27323.34  24661.77  90.26
956.0  27983.10  23456.80  83.82
966.0  28580.08  23078.68  80.75
976.0  29061.46  23483.74  80.81
986.0  29600.63  21240.97  71.76
996.0  29854.54  22197.58  74.35
1006.0  29773.67  22779.91  76.51
1016.0  29961.72  23681.37  79.04
1026.0  29958.18  24448.46  81.61
1036.0  29727.72  25019.24  84.16
1046.0  29945.01  25860.44  86.36
1056.0  30102.43  26513.84  88.08
1066.0  30105.99  26789.56  88.98
1076.0  29996.46  26728.12  89.10
1086.0  30084.70  26566.91  88.31
1096.0  30105.40  26164.00  86.91
1106.0  30068.25  25543.08  84.95
1116.0  29868.35  24744.25  82.84
1126.0  29809.45  23637.99  79.30
1136.0  29822.39  21631.31  72.53
1146.0  29809.91  19258.80  64.61
1156.0  29735.93  17754.31  59.71
1166.0  29672.84  17176.58  57.89
1176.0  29648.36  16938.80  57.13
1186.0  29704.47  16809.29  56.59
1196.0  29371.18  16485.98  56.13
1206.0  29121.56  16355.32  56.16
1216.0  28966.90  16401.60  56.62
1226.0  28785.60  16541.85  57.47
1236.0  28657.09  16702.83  58.29
1246.0  28484.90  16786.00  58.93
1256.0  28333.73  16821.00  59.37
1266.0  28154.79  16749.80  59.49
1276.0  28214.44  16698.33  59.18
1286.0  28244.54  16494.01  58.40
1296.0  28080.90  16007.37  57.00
1306.0  27749.33  15234.32  54.90
1316.0  27339.86  14268.90  52.19
1326.0  26940.91  13187.10  48.95
1336.0  26516.39  12113.22  45.68
1346.0  26100.07  11130.66  42.65
1356.0  25456.23  10199.42  40.07
1366.0  25028.25  9423.94  37.65
1376.0  24975.46  8528.11  34.15
1386.0  24740.24  7131.96  28.83
1396.0  24477.47  5718.14  23.36
1406.0  24216.63  4746.50  19.60
1416.0  24200.46  4242.50  17.53
1426.0  24158.30  3990.67  16.52
1436.0  24072.41  3870.38  16.08
1446.0  23956.60  3810.33  15.91
1456.0  23813.94  3785.35  15.90
1466.0  23700.42  3816.84  16.10
1476.0  23484.85  3905.49  16.63
1486.0  23331.72  4076.76  17.47
1496.0  23130.98  4304.71  18.61
1506.0  22945.06  4462.11  19.45
1516.0  22702.48  4575.32  20.15
1526.0  22502.83  4712.79  20.94
1536.0  22328.41  4885.43  21.88
1546.0  22104.85  5046.38  22.83
1556.0  21942.04  5187.42  23.64
1566.0  21758.45  5312.58  24.42
1576.0  21478.18  5456.27  25.40
1586.0  21278.88  5573.10  26.19
1596.0  21035.80  5641.74  26.82
1606.0  20794.20  5707.43  27.45
1616.0  20552.01  5755.63  28.01
1626.0  20323.44  5825.81  28.67
1636.0  20065.83  5854.42  29.18
1646.0  19774.62  5860.42  29.64
1656.0  19480.49  5829.75  29.93
1666.0  19194.30  5774.73  30.09
1676.0  18944.19  5698.53  30.08
1686.0  18931.40  5635.04  29.77
1696.0  18711.77  5492.67  29.35
1706.0  18450.64  5307.32  28.76
1716.0  18035.90  5057.60  28.04
1726.0  17776.34  4848.56  27.28
1736.0  17557.88  4714.92  26.85
1746.0  17326.38  4575.37  26.41
1756.0  17015.40  4373.49  25.70
1766.0  16759.66  4206.35  25.10
1776.0  16615.26  4118.56  24.79
1786.0  16444.78  4021.91  24.46
1796.0  16217.15  3947.61  24.34
1806.0  16004.96  3896.97  24.35
1816.0  15766.24  3824.93  24.26
1826.0  15451.08  3742.27  24.22
1836.0  15063.08  3613.65  23.99
1846.0  14855.31  3473.13  23.38
1856.0  14691.59  3253.28  22.14
1866.0  14522.35  2957.66  20.37
1876.0  14253.69  2531.35  17.76
1886.0  14110.56  2097.96  14.87
1896.0  13808.32  1837.14  13.30
1906.0  12793.00  1134.83  8.87
1916.0  12616.65  1154.76  9.15
1926.0  12521.17  1151.07  9.19
1936.0  12420.38  1146.77  9.23
1946.0  12399.95  1169.89  9.43
1956.0  12267.23  1177.91  9.60
1966.0  12255.75  1208.70  9.86
1976.0  12167.54  1215.47  9.99
1986.0  11984.38  1240.07  10.35
1996.0  11804.14  1249.46  10.58
2006.0  11722.12  1285.73  10.97
2016.0  11520.71  1296.71  11.26
2026.0  11331.47  1306.16  11.53
2036.0  11153.81  1318.72  11.82
2046.0  11015.78  1334.36  12.11
2056.0  10803.98  1327.92  12.29
2066.0  10617.95  1345.55  12.67
2076.0  10467.51  1358.45  12.98
2086.0  10367.19  1371.32  13.23
2096.0  10196.33  1365.88  13.40
2106.0  9977.58  1368.93  13.72
2116.0  9951.76  1391.13  13.98
2126.0  9831.36  1408.26  14.32
2136.0  9625.43  1400.13  14.55
2146.0  9388.88  1384.15  14.74
2156.0  9207.43  1383.76  15.03
2166.0  9064.45  1364.97  15.06
2176.0  8911.97  1362.27  15.29
2186.0  8812.47  1353.22  15.36
2196.0  8746.91  1362.68  15.58
2206.0  8717.01  1357.68  15.58
2216.0  8632.54  1341.66  15.54
2226.0  8558.94  1315.36  15.37
2236.0  8436.18  1291.65  15.31
2246.0  8282.68  1236.81  14.93
2256.0  8199.17  1174.58  14.33
2266.0  8120.13  1145.32  14.10
2276.0  8038.92  1087.52  13.53
2286.0  7958.54  1074.30  13.50
2296.0  7926.13  1013.55  12.79
2306.0  7675.85  960.56  12.51
2316.0  7429.53  910.82  12.26
2326.0  7404.63  928.66  12.54
2336.0  7366.33  894.91  12.15
2346.0  7276.21  871.55  11.98
2356.0  7132.49  837.20  11.74
2366.0  7038.59  808.41  11.49
2376.0  6898.87  806.96  11.70
2386.0  6807.05  767.99  11.28
2396.0  6685.66  748.43  11.19
2406.0  6574.61  739.26  11.24
2416.0  6463.16  713.27  11.04
2426.0  6354.84  673.45  10.60
2436.0  6210.96  650.89  10.48
2446.0  6104.75  637.82  10.45
2456.0  6017.59  608.30  10.11
2466.0  5854.98  593.42  10.14
2476.0  5727.20  562.72  9.83
2486.0  5577.85  544.88  9.77
2496.0  5547.28  537.46  9.69
2506.0  5804.94  562.57  9.69
