/*** Spectra Vista SIG Data ***/
name= RS3.sig
comm= Resampled spectral data SIG file reprocesed for matching/overlap;Averaged Ref/Tar of files: RD5S7,RD5S8,RD5S9
data=
346.0  366.28  116.78  31.88
356.0  580.02  142.58  24.58
366.0  764.64  168.50  22.04
376.0  1054.72  197.80  18.75
386.0  1321.48  210.83  15.95
396.0  1668.03  263.68  15.81
406.0  2032.56  276.70  13.61
416.0  2484.09  328.54  13.23
426.0  2825.64  357.37  12.65
436.0  3449.00  416.64  12.08
446.0  4016.12  473.75  11.80
456.0  4559.32  515.53  11.31
466.0  5430.31  611.39  11.26
476.0  6200.82  694.32  11.20
486.0  6683.18  723.38  10.82
496.0  7759.25  835.48  10.77
506.0  8620.16  928.81  10.77
516.0  8958.85  971.11  10.84
526.0  9944.82  1088.44  10.94
536.0  11306.85  1274.32  11.27
546.0  12443.50  1409.26  11.33
556.0  12537.38  1435.76  11.45
566.0  13373.89  1586.02  11.86
576.0  14717.24  1876.91  12.75
586.0  15778.76  2236.08  14.17
596.0  16643.71  2647.10  15.90
606.0  16939.11  3133.74  18.50
616.0  18066.83  3991.06  22.09
626.0  19907.23  5202.13  26.13
636.0  19564.29  5797.85  29.63
646.0  19659.63  6588.12  33.51
656.0  19192.34  7141.54  37.21
666.0  20282.32  7386.69  36.42
676.0  21596.49  8250.76  38.20
686.0  23461.59  10961.69  46.72
696.0  24117.97  13419.57  55.64
706.0  24329.51  14564.76  59.86
716.0  23886.32  14916.75  62.45
726.0  23086.04  14877.49  64.44
736.0  22569.89  15030.60  66.60
746.0  23814.03  16514.09  69.35
756.0  24266.56  17156.81  70.70
766.0  25278.75  18599.86  73.58
776.0  25925.56  19628.88  75.71
786.0  26060.85  20391.34  78.25
796.0  25580.60  20248.49  79.16
806.0  24835.91  20151.72  81.14
816.0  24700.16  20542.97  83.17
826.0  24523.61  20690.87  84.37
836.0  24895.68  21306.78  85.58
846.0  25503.02  22297.69  87.43
856.0  25926.24  22941.98  88.49
866.0  26083.86  23385.88  89.66
876.0  26142.33  23652.57  90.48
886.0  26278.55  23773.29  90.47
896.0  26059.51  23477.27  90.09
906.0  26042.54  23392.96  89.83
916.0  25872.97  23066.34  89.15
926.0  25848.12  22563.13  87.29
936.0  26639.41  22293.87  83.69
946.0  27323.34  21816.27  79.84
956.0  27983.10  20918.20  74.75
966.0  28580.08  20714.98  72.48
976.0  29061.46  21052.19  72.44
986.0  29600.63  19038.97  64.32
996.0  29854.54  20044.17  67.14
1006.0  29773.67  20573.29  69.10
1016.0  29961.72  21359.93  71.29
1026.0  29958.18  22043.83  73.58
1036.0  29727.72  22494.99  75.67
1046.0  29945.01  23248.79  77.64
1056.0  30102.43  23843.17  79.21
1066.0  30105.99  24111.53  80.09
1076.0  29996.46  24069.29  80.24
1086.0  30084.70  23961.08  79.65
1096.0  30105.40  23607.09  78.41
1106.0  30068.25  23095.13  76.81
1116.0  29868.35  22396.96  74.99
1126.0  29809.45  21418.91  71.85
1136.0  29822.39  19671.41  65.96
1146.0  29809.91  17571.90  58.95
1156.0  29735.93  16219.51  54.55
1166.0  29672.84  15716.66  52.97
1176.0  29648.36  15509.18  52.31
1186.0  29704.47  15372.09  51.75
1196.0  29371.18  15060.90  51.28
1206.0  29121.56  14935.89  51.29
1216.0  28966.90  14994.91  51.77
1226.0  28785.60  15131.02  52.56
1236.0  28657.09  15275.39  53.30
1246.0  28484.90  15350.19  53.89
1256.0  28333.73  15380.87  54.28
1266.0  28154.79  15307.24  54.37
1276.0  28214.44  15278.11  54.15
1286.0  28244.54  15100.09  53.46
1296.0  28080.90  14650.12  52.17
1306.0  27749.33  13936.93  50.22
1316.0  27339.86  13056.35  47.76
1326.0  26940.91  12064.35  44.78
1336.0  26516.39  11061.27  41.71
1346.0  26100.07  10139.90  38.85
1356.0  25456.23  9257.65  36.37
1366.0  25028.25  8544.59  34.14
1376.0  24975.46  7729.35  30.95
1386.0  24740.24  6425.33  25.97
1396.0  24477.47  5184.87  21.18
1406.0  24216.63  4344.64  17.94
1416.0  24200.46  3926.25  16.22
1426.0  24158.30  3723.30  15.41
1436.0  24072.41  3620.50  15.04
1446.0  23956.60  3565.48  14.88
1456.0  23813.94  3546.09  14.89
1466.0  23700.42  3563.57  15.04
1476.0  23484.85  3623.25  15.43
1486.0  23331.72  3749.52  16.07
1496.0  23130.98  3908.18  16.90
1506.0  22945.06  4041.08  17.61
1516.0  22702.48  4156.51  18.31
1526.0  22502.83  4285.80  19.05
1536.0  22328.41  4428.62  19.83
1546.0  22104.85  4554.45  20.60
1556.0  21942.04  4683.93  21.35
1566.0  21758.45  4779.24  21.96
1576.0  21478.18  4900.75  22.82
1586.0  21278.88  5004.45  23.52
1596.0  21035.80  5065.43  24.08
1606.0  20794.20  5119.67  24.62
1616.0  20552.01  5175.51  25.18
1626.0  20323.44  5240.98  25.79
1636.0  20065.83  5264.57  26.24
1646.0  19774.62  5240.97  26.50
1656.0  19480.49  5197.67  26.68
1666.0  19194.30  5152.16  26.84
1676.0  18944.19  5084.03  26.84
1686.0  18931.40  5044.54  26.65
1696.0  18711.77  4924.56  26.32
1706.0  18450.64  4763.45  25.82
1716.0  18035.90  4542.72  25.19
1726.0  17776.34  4365.18  24.56
1736.0  17557.88  4245.23  24.18
1746.0  17326.38  4108.59  23.71
1756.0  17015.40  3927.02  23.08
1766.0  16759.66  3785.38  22.59
1776.0  16615.26  3702.75  22.29
1786.0  16444.78  3621.17  22.02
1796.0  16217.15  3554.07  21.92
1806.0  16004.96  3509.27  21.93
1816.0  15766.24  3453.50  21.90
1826.0  15451.08  3385.30  21.91
1836.0  15063.08  3274.37  21.74
1846.0  14855.31  3200.99  21.55
1856.0  14691.59  3070.23  20.90
1866.0  14522.35  2740.29  18.87
1876.0  14253.69  2311.68  16.22
1886.0  14110.56  2009.28  14.24
1896.0  13808.32  1866.78  13.52
1906.0  12793.00  1321.96  10.33
1916.0  12616.65  1335.58  10.59
1926.0  12521.17  1320.05  10.54
1936.0  12420.38  1309.65  10.54
1946.0  12399.95  1315.03  10.61
1956.0  12267.23  1316.10  10.73
1966.0  12255.75  1329.03  10.84
1976.0  12167.54  1344.77  11.05
1986.0  11984.38  1326.76  11.07
1996.0  11804.14  1328.53  11.25
2006.0  11722.12  1349.61  11.51
2016.0  11520.71  1339.85  11.63
2026.0  11331.47  1338.24  11.81
2036.0  11153.81  1345.07  12.06
2046.0  11015.78  1346.98  12.23
2056.0  10803.98  1338.81  12.39
2066.0  10617.95  1326.11  12.49
2076.0  10467.51  1326.80  12.68
2086.0  10367.19  1340.60  12.93
2096.0  10196.33  1326.55  13.01
2106.0  9977.58  1319.62  13.23
2116.0  9951.76  1349.28  13.56
2126.0  9831.36  1342.26  13.65
2136.0  9625.43  1336.51  13.89
2146.0  9388.88  1309.99  13.95
2156.0  9207.43  1307.60  14.20
2166.0  9064.45  1293.01  14.26
2176.0  8911.97  1289.00  14.46
2186.0  8812.47  1273.68  14.45
2196.0  8746.91  1264.91  14.46
2206.0  8717.01  1271.85  14.59
2216.0  8632.54  1273.41  14.75
2226.0  8558.94  1225.54  14.32
2236.0  8436.18  1214.84  14.40
2246.0  8282.68  1164.54  14.06
2256.0  8199.17  1128.45  13.76
2266.0  8120.13  1098.24  13.52
2276.0  8038.92  1071.51  13.33
2286.0  7958.54  1026.63  12.90
2296.0  7926.13  1017.18  12.83
2306.0  7675.85  949.95  12.38
2316.0  7429.53  934.80  12.58
2326.0  7404.63  939.19  12.68
2336.0  7366.33  909.07  12.34
2346.0  7276.21  901.18  12.39
2356.0  7132.49  866.87  12.15
2366.0  7038.59  855.47  12.15
2376.0  6898.87  826.82  11.98
2386.0  6807.05  808.51  11.88
2396.0  6685.66  789.46  11.81
2406.0  6574.61  764.26  11.62
2416.0  6463.16  745.11  11.53
2426.0  6354.84  726.78  11.44
2436.0  6210.96  717.52  11.55
2446.0  6104.75  694.59  11.38
2456.0  6017.59  677.56  11.26
2466.0  5854.98  654.99  11.19
2476.0  5727.20  635.00  11.09
2486.0  5577.85  642.52  11.52
2496.0  5547.28  638.47  11.51
2506.0  5804.94  638.76  11.00
