/*** Spectra Vista SIG Data ***/
name= RS5.sig
comm= Resampled spectral data SIG file reprocesed for matching/overlap;Averaged Ref/Tar of files: RD6S13,RD6S14,RD6S15
data=
346.0  350.35  68.16  19.45
356.0  548.37  79.30  14.46
366.0  733.51  90.84  12.38
376.0  1020.12  100.05  9.81
386.0  1277.04  105.67  8.27
396.0  1627.44  126.74  7.79
406.0  1981.59  126.68  6.39
416.0  2426.66  148.77  6.13
426.0  2760.20  156.78  5.68
436.0  3371.96  178.30  5.29
446.0  3932.55  201.00  5.11
456.0  4458.34  219.08  4.91
466.0  5321.78  260.44  4.89
476.0  6071.69  301.69  4.97
486.0  6545.75  312.72  4.78
496.0  7607.89  364.39  4.79
506.0  8454.78  417.74  4.94
516.0  8783.27  449.90  5.12
526.0  9763.90  515.29  5.28
536.0  11118.00  616.64  5.55
546.0  12245.42  720.63  5.88
556.0  12328.74  772.63  6.27
566.0  13155.91  892.14  6.78
576.0  14507.55  1085.23  7.48
586.0  15570.89  1296.60  8.33
596.0  16431.40  1502.78  9.15
606.0  16712.83  1684.12  10.08
616.0  17829.88  2007.75  11.26
626.0  19660.82  2540.86  12.92
636.0  19333.08  2745.95  14.20
646.0  19460.12  2970.98  15.27
656.0  19022.71  3144.31  16.53
666.0  20100.61  3374.13  16.79
676.0  21420.32  3953.22  18.46
686.0  23296.24  5081.61  21.81
696.0  23938.75  5914.68  24.71
706.0  24146.65  6562.95  27.18
716.0  23692.80  7012.91  29.60
726.0  22909.23  7302.96  31.88
736.0  22412.65  7632.38  34.05
746.0  23689.99  8642.69  36.48
756.0  24146.35  9334.39  38.66
766.0  25173.28  10341.32  41.08
776.0  25830.00  11198.01  43.35
786.0  26006.50  11850.88  45.57
796.0  25488.24  12104.70  47.49
806.0  24760.71  12246.81  49.46
816.0  24660.03  12622.52  51.19
826.0  24490.65  12789.92  52.22
836.0  24813.24  13076.30  52.70
846.0  25390.01  13640.00  53.72
856.0  25793.23  14092.84  54.64
866.0  25937.23  14381.92  55.45
876.0  25978.67  14516.08  55.88
886.0  26066.82  14503.75  55.64
896.0  25797.95  14208.61  55.08
906.0  25784.12  13978.11  54.21
916.0  25585.58  13526.41  52.87
926.0  25562.63  12723.90  49.78
936.0  26313.67  11792.09  44.81
946.0  26990.41  10656.95  39.48
956.0  27679.08  9323.10  33.68
966.0  28223.03  8858.44  31.39
976.0  28734.35  8848.24  30.79
986.0  29617.10  8919.72  30.12
996.0  29682.46  9413.43  31.71
1006.0  29574.85  9825.49  33.22
1016.0  29765.57  10508.47  35.30
1026.0  29729.52  11187.14  37.63
1036.0  29515.06  11841.87  40.12
1046.0  29711.45  12622.70  42.48
1056.0  29893.15  13221.77  44.23
1066.0  29897.52  13492.66  45.13
1076.0  29800.79  13415.52  45.02
1086.0  29886.99  13140.57  43.97
1096.0  29929.51  12595.39  42.08
1106.0  29866.48  11929.69  39.94
1116.0  29674.06  11168.08  37.64
1126.0  29628.74  10091.77  34.06
1136.0  29657.68  8433.55  28.44
1146.0  29635.14  6949.73  23.45
1156.0  29553.21  6197.14  20.97
1166.0  29503.66  5934.78  20.12
1176.0  29484.94  5806.32  19.69
1186.0  29538.64  5721.33  19.37
1196.0  29214.89  5581.90  19.11
1206.0  28979.48  5508.80  19.01
1216.0  28818.50  5498.52  19.08
1226.0  28656.56  5523.99  19.28
1236.0  28531.50  5551.11  19.46
1246.0  28361.18  5557.63  19.60
1256.0  28203.68  5543.94  19.66
1266.0  28029.85  5501.31  19.63
1276.0  28088.39  5453.56  19.42
1286.0  28124.94  5341.00  18.99
1296.0  27958.41  5140.99  18.39
1306.0  27627.28  4851.82  17.56
1316.0  27221.07  4527.77  16.63
1326.0  26818.19  4192.94  15.63
1336.0  26392.47  3889.42  14.74
1346.0  25960.75  3623.04  13.96
1356.0  25324.13  3361.52  13.27
1366.0  24931.33  3155.24  12.66
1376.0  24859.99  2963.43  11.92
1386.0  24632.06  2604.61  10.57
1396.0  24380.47  2256.61  9.26
1406.0  24113.09  1981.94  8.22
1416.0  24100.63  1828.57  7.59
1426.0  24059.20  1739.53  7.23
1436.0  23972.09  1689.22  7.05
1446.0  23864.15  1659.91  6.96
1456.0  23721.80  1639.35  6.91
1466.0  23605.52  1639.05  6.94
1476.0  23392.42  1652.00  7.06
1486.0  23242.80  1698.12  7.31
1496.0  23046.32  1756.18  7.62
1506.0  22839.62  1778.78  7.79
1516.0  22613.88  1801.12  7.96
1526.0  22400.45  1823.85  8.14
1536.0  22235.76  1854.02  8.34
1546.0  22015.88  1880.99  8.54
1556.0  21843.28  1901.20  8.70
1566.0  21667.65  1916.76  8.85
1576.0  21395.50  1938.58  9.06
1586.0  21183.04  1949.55  9.20
1596.0  20952.60  1941.85  9.27
1606.0  20718.70  1933.58  9.33
1616.0  20474.49  1924.26  9.40
1626.0  20247.31  1929.32  9.53
1636.0  19983.73  1913.62  9.58
1646.0  19698.46  1890.65  9.60
1656.0  19408.32  1860.30  9.59
1666.0  19124.83  1832.61  9.58
1676.0  18864.06  1800.85  9.55
1686.0  18855.84  1778.26  9.43
1696.0  18634.96  1739.89  9.34
1706.0  18370.29  1690.12  9.20
1716.0  17962.80  1616.09  9.00
1726.0  17703.75  1555.85  8.79
1736.0  17485.45  1514.68  8.66
1746.0  17265.19  1480.34  8.57
1756.0  16948.63  1427.09  8.42
1766.0  16694.46  1386.10  8.30
1776.0  16556.01  1362.57  8.23
1786.0  16371.39  1333.67  8.15
1796.0  16140.67  1300.87  8.06
1806.0  15938.14  1284.96  8.06
1816.0  15678.97  1253.47  7.99
1826.0  15392.26  1224.92  7.96
1836.0  15002.97  1192.14  7.95
1846.0  14761.21  1174.77  7.96
1856.0  14556.19  1150.85  7.91
1866.0  14407.28  1066.44  7.40
1876.0  14196.45  913.23  6.43
1886.0  14007.84  784.80  5.60
1896.0  13666.82  695.36  5.09
1906.0  12741.66  676.64  5.31
1916.0  12564.20  685.65  5.46
1926.0  12460.23  660.17  5.30
1936.0  12370.80  652.95  5.28
1946.0  12350.77  649.77  5.26
1956.0  12226.83  679.60  5.56
1966.0  12235.64  676.59  5.53
1976.0  12109.13  685.01  5.66
1986.0  11959.16  691.44  5.78
1996.0  11765.88  688.17  5.85
2006.0  11671.47  691.46  5.92
2016.0  11489.77  712.70  6.20
2026.0  11296.39  680.81  6.03
2036.0  11118.89  696.19  6.26
2046.0  10967.77  704.85  6.43
2056.0  10772.24  687.15  6.38
2066.0  10586.51  695.54  6.57
2076.0  10437.29  689.83  6.61
2086.0  10345.87  691.27  6.68
2096.0  10147.65  691.34  6.81
2106.0  9962.90  685.74  6.88
2116.0  9924.42  693.33  6.99
2126.0  9819.65  697.04  7.10
2136.0  9628.14  686.94  7.13
2146.0  9347.98  671.84  7.19
2156.0  9207.07  658.61  7.15
2166.0  9045.30  653.91  7.23
2176.0  8862.98  642.01  7.24
2186.0  8784.19  629.19  7.16
2196.0  8710.92  627.12  7.20
2206.0  8676.64  618.35  7.13
2216.0  8628.13  623.81  7.23
2226.0  8514.03  594.50  6.98
2236.0  8471.23  585.97  6.92
2246.0  8264.26  567.74  6.87
2256.0  8190.87  543.85  6.64
2266.0  8126.90  524.19  6.45
2276.0  8029.96  519.54  6.47
2286.0  7925.78  496.55  6.27
2296.0  7890.23  487.62  6.18
2306.0  7669.48  442.96  5.78
2316.0  7409.17  432.16  5.83
2326.0  7407.33  449.90  6.07
2336.0  7352.94  424.82  5.78
2346.0  7306.66  421.15  5.76
2356.0  7113.81  399.91  5.62
2366.0  7033.05  415.19  5.90
2376.0  6902.02  374.33  5.42
2386.0  6802.63  374.70  5.51
2396.0  6698.31  364.18  5.44
2406.0  6580.89  339.89  5.16
2416.0  6486.45  334.47  5.16
2426.0  6373.82  310.77  4.88
2436.0  6209.95  320.95  5.17
2446.0  6115.19  307.79  5.03
2456.0  6033.36  280.55  4.65
2466.0  5852.24  272.43  4.66
2476.0  5728.44  227.01  3.96
2486.0  5584.08  266.80  4.78
2496.0  5488.96  280.82  5.12
2506.0  5754.08  209.14  3.63
