/*** Spectra Vista SIG Data ***/
name= RS4.sig
comm= Resampled spectral data SIG file reprocesed for matching/overlap;Averaged Ref/Tar of files: RD6S10,RD6S11,RD6S12
data=
346.0  350.35  71.13  20.30
356.0  548.37  87.18  15.90
366.0  733.51  100.80  13.74
376.0  1020.12  121.36  11.90
386.0  1277.04  129.10  10.11
396.0  1627.44  159.23  9.78
406.0  1981.59  169.64  8.56
416.0  2426.66  199.52  8.22
426.0  2760.20  215.53  7.81
436.0  3371.96  253.59  7.52
446.0  3932.55  291.33  7.41
456.0  4458.34  314.79  7.06
466.0  5321.78  374.46  7.04
476.0  6071.69  420.43  6.92
486.0  6545.75  444.22  6.79
496.0  7607.89  515.29  6.77
506.0  8454.78  577.82  6.83
516.0  8783.27  600.35  6.84
526.0  9763.90  670.42  6.87
536.0  11118.00  773.47  6.96
546.0  12245.42  863.24  7.05
556.0  12328.74  885.88  7.19
566.0  13155.91  981.46  7.46
576.0  14507.55  1150.73  7.93
586.0  15570.89  1336.43  8.58
596.0  16431.40  1503.91  9.15
606.0  16712.83  1671.36  10.00
616.0  17829.88  2003.68  11.24
626.0  19660.82  2452.39  12.47
636.0  19333.08  2694.53  13.94
646.0  19460.12  3211.44  16.50
656.0  19022.71  3443.71  18.10
666.0  20100.61  3709.63  18.46
676.0  21420.32  4358.33  20.35
686.0  23296.24  5565.72  23.89
696.0  23938.75  6441.20  26.91
706.0  24146.65  7148.37  29.60
716.0  23692.80  7596.70  32.06
726.0  22909.23  7869.12  34.35
736.0  22412.65  8188.83  36.54
746.0  23689.99  9261.16  39.09
756.0  24146.35  9931.46  41.13
766.0  25173.28  10998.67  43.69
776.0  25830.00  11861.43  45.92
786.0  26006.50  12518.56  48.14
796.0  25488.24  12682.48  49.76
806.0  24760.71  12766.14  51.56
816.0  24660.03  13117.93  53.20
826.0  24490.65  13218.12  53.97
836.0  24813.24  13463.74  54.26
846.0  25390.01  14033.50  55.27
856.0  25793.23  14434.22  55.96
866.0  25937.23  14703.32  56.69
876.0  25978.67  14809.06  57.00
886.0  26066.82  14758.25  56.62
896.0  25797.95  14422.14  55.90
906.0  25784.12  14148.21  54.87
916.0  25585.58  13682.82  53.48
926.0  25562.63  12852.61  50.28
936.0  26313.67  11926.34  45.32
946.0  26990.41  10792.51  39.99
956.0  27679.08  9484.89  34.27
966.0  28223.03  9035.66  32.02
976.0  28734.35  9044.15  31.48
986.0  29617.10  8843.17  29.86
996.0  29682.46  9389.03  31.63
1006.0  29574.85  9838.12  33.27
1016.0  29765.57  10507.32  35.30
1026.0  29729.52  11209.50  37.70
1036.0  29515.06  11842.51  40.12
1046.0  29711.45  12619.02  42.47
1056.0  29893.15  13229.41  44.26
1066.0  29897.52  13532.43  45.26
1076.0  29800.79  13463.99  45.18
1086.0  29886.99  13205.11  44.18
1096.0  29929.51  12666.01  42.32
1106.0  29866.48  12028.48  40.27
1116.0  29674.06  11261.92  37.95
1126.0  29628.74  10188.33  34.39
1136.0  29657.68  8562.33  28.87
1146.0  29635.14  7099.15  23.96
1156.0  29553.21  6388.11  21.62
1166.0  29503.66  6135.59  20.80
1176.0  29484.94  6019.28  20.41
1186.0  29538.64  5939.20  20.11
1196.0  29214.89  5794.52  19.83
1206.0  28979.48  5733.61  19.79
1216.0  28818.50  5731.71  19.89
1226.0  28656.56  5749.81  20.06
1236.0  28531.50  5774.39  20.24
1246.0  28361.18  5785.36  20.40
1256.0  28203.68  5776.15  20.48
1266.0  28029.85  5741.71  20.48
1276.0  28088.39  5709.24  20.33
1286.0  28124.94  5598.14  19.90
1296.0  27958.41  5401.04  19.32
1306.0  27627.28  5125.26  18.55
1316.0  27221.07  4810.43  17.67
1326.0  26818.19  4496.22  16.77
1336.0  26392.47  4189.19  15.87
1346.0  25960.75  3929.38  15.14
1356.0  25324.13  3689.56  14.57
1366.0  24931.33  3473.40  13.93
1376.0  24859.99  3306.90  13.30
1386.0  24632.06  2967.75  12.05
1396.0  24380.47  2660.88  10.91
1406.0  24113.09  2414.81  10.01
1416.0  24100.63  2279.30  9.46
1426.0  24059.20  2201.18  9.15
1436.0  23972.09  2159.31  9.01
1446.0  23864.15  2131.16  8.93
1456.0  23721.80  2111.38  8.90
1466.0  23605.52  2109.41  8.94
1476.0  23392.42  2112.27  9.03
1486.0  23242.80  2148.48  9.24
1496.0  23046.32  2189.27  9.50
1506.0  22839.62  2227.85  9.75
1516.0  22613.88  2241.82  9.91
1526.0  22400.45  2249.25  10.04
1536.0  22235.76  2249.48  10.12
1546.0  22015.88  2279.31  10.35
1556.0  21843.28  2279.97  10.44
1566.0  21667.65  2279.75  10.52
1576.0  21395.50  2300.70  10.75
1586.0  21183.04  2294.57  10.83
1596.0  20952.60  2271.05  10.84
1606.0  20718.70  2264.53  10.93
1616.0  20474.49  2256.82  11.02
1626.0  20247.31  2243.69  11.08
1636.0  19983.73  2225.76  11.14
1646.0  19698.46  2188.86  11.11
1656.0  19408.32  2139.51  11.02
1666.0  19124.83  2096.19  10.96
1676.0  18864.06  2057.12  10.90
1686.0  18855.84  2044.17  10.84
1696.0  18634.96  2008.37  10.78
1706.0  18370.29  1949.64  10.61
1716.0  17962.80  1869.64  10.41
1726.0  17703.75  1809.23  10.22
1736.0  17485.45  1772.64  10.14
1746.0  17265.19  1727.97  10.01
1756.0  16948.63  1673.78  9.88
1766.0  16694.46  1633.77  9.79
1776.0  16556.01  1608.41  9.71
1786.0  16371.39  1576.72  9.63
1796.0  16140.67  1550.75  9.61
1806.0  15938.14  1522.26  9.55
1816.0  15678.97  1499.28  9.56
1826.0  15392.26  1463.76  9.51
1836.0  15002.97  1430.53  9.53
1846.0  14761.21  1426.11  9.66
1856.0  14556.19  1458.91  10.02
1866.0  14407.28  1338.92  9.29
1876.0  14196.45  1130.31  7.96
1886.0  14007.84  1020.89  7.29
1896.0  13666.82  953.44  6.98
1906.0  12741.66  761.24  5.97
1916.0  12564.20  731.72  5.82
1926.0  12460.23  711.22  5.71
1936.0  12370.80  696.31  5.63
1946.0  12350.77  704.71  5.71
1956.0  12226.83  691.69  5.66
1966.0  12235.64  715.34  5.85
1976.0  12109.13  699.69  5.78
1986.0  11959.16  726.43  6.07
1996.0  11765.88  712.21  6.05
2006.0  11671.47  721.76  6.18
2016.0  11489.77  717.33  6.24
2026.0  11296.39  708.95  6.28
2036.0  11118.89  707.66  6.36
2046.0  10967.77  713.80  6.51
2056.0  10772.24  696.08  6.46
2066.0  10586.51  683.58  6.46
2076.0  10437.29  690.27  6.61
2086.0  10345.87  694.61  6.71
2096.0  10147.65  683.07  6.73
2106.0  9962.90  678.81  6.81
2116.0  9924.42  682.18  6.87
2126.0  9819.65  679.09  6.92
2136.0  9628.14  662.83  6.88
2146.0  9347.98  659.85  7.06
2156.0  9207.07  645.14  7.01
2166.0  9045.30  616.51  6.82
2176.0  8862.98  637.63  7.19
2186.0  8784.19  622.37  7.09
2196.0  8710.92  604.98  6.95
2206.0  8676.64  606.75  6.99
2216.0  8628.13  614.09  7.12
2226.0  8514.03  601.86  7.07
2236.0  8471.23  599.82  7.08
2246.0  8264.26  573.65  6.94
2256.0  8190.87  572.26  6.99
2266.0  8126.90  542.35  6.67
2276.0  8029.96  527.01  6.56
2286.0  7925.78  524.41  6.62
2296.0  7890.23  496.73  6.30
2306.0  7669.48  475.14  6.20
2316.0  7409.17  479.27  6.47
2326.0  7407.33  495.56  6.69
2336.0  7352.94  478.18  6.50
2346.0  7306.66  458.79  6.28
2356.0  7113.81  447.82  6.30
2366.0  7033.05  434.90  6.18
2376.0  6902.02  421.50  6.11
2386.0  6802.63  431.49  6.34
2396.0  6698.31  423.99  6.33
2406.0  6580.89  405.11  6.16
2416.0  6486.45  412.65  6.36
2426.0  6373.82  382.14  6.00
2436.0  6209.95  375.37  6.04
2446.0  6115.19  343.82  5.62
2456.0  6033.36  325.36  5.39
2466.0  5852.24  349.98  5.98
2476.0  5728.44  309.74  5.41
2486.0  5584.08  308.34  5.52
2496.0  5488.96  316.62  5.77
2506.0  5754.08  351.88  6.12
