/*** Spectra Vista SIG Data ***/
name= RT2.sig
comm= Resampled spectral data SIG file reprocesed for matching/overlap;Averaged Ref/Tar of files: RD6T4,RD6T5,RD6T6
data=
346.0  350.35  49.90  14.24
356.0  548.37  61.53  11.22
366.0  733.51  70.41  9.60
376.0  1020.12  78.69  7.71
386.0  1277.04  85.80  6.72
396.0  1627.44  106.54  6.55
406.0  1981.59  106.03  5.35
416.0  2426.66  129.65  5.34
426.0  2760.20  137.73  4.99
436.0  3371.96  162.76  4.83
446.0  3932.55  190.02  4.83
456.0  4458.34  207.40  4.65
466.0  5321.78  249.64  4.69
476.0  6071.69  277.39  4.57
486.0  6545.75  304.12  4.65
496.0  7607.89  360.77  4.74
506.0  8454.78  413.35  4.89
516.0  8783.27  441.46  5.03
526.0  9763.90  508.44  5.21
536.0  11118.00  600.98  5.41
546.0  12245.42  682.88  5.58
556.0  12328.74  729.61  5.92
566.0  13155.91  822.08  6.25
576.0  14507.55  973.11  6.71
586.0  15570.89  1131.79  7.27
596.0  16431.40  1279.75  7.79
606.0  16712.83  1406.23  8.41
616.0  17829.88  1660.40  9.31
626.0  19660.82  2030.59  10.33
636.0  19333.08  2267.07  11.73
646.0  19460.12  2415.70  12.41
656.0  19022.71  2180.34  11.46
666.0  20100.61  2571.25  12.79
676.0  21420.32  3006.23  14.03
686.0  23296.24  3791.74  16.28
696.0  23938.75  4385.05  18.32
706.0  24146.65  4877.30  20.20
716.0  23692.80  5245.65  22.14
726.0  22909.23  5522.04  24.10
736.0  22412.65  5802.24  25.89
746.0  23689.99  6575.96  27.76
756.0  24146.35  7180.12  29.74
766.0  25173.28  7924.95  31.48
776.0  25830.00  8623.88  33.39
786.0  26006.50  9172.27  35.27
796.0  25488.24  9580.45  37.59
806.0  24760.71  9795.96  39.56
816.0  24660.03  10214.26  41.42
826.0  24490.65  10483.84  42.81
836.0  24813.24  10866.66  43.79
846.0  25390.01  11385.16  44.84
856.0  25793.23  11927.39  46.24
866.0  25937.23  12279.24  47.34
876.0  25978.67  12522.75  48.20
886.0  26066.82  12725.02  48.82
896.0  25797.95  12682.08  49.16
906.0  25784.12  12663.13  49.11
916.0  25585.58  12439.89  48.62
926.0  25562.63  11973.65  46.84
936.0  26313.67  11462.01  43.56
946.0  26990.41  10631.31  39.39
956.0  27679.08  9609.67  34.72
966.0  28223.03  9227.59  32.70
976.0  28734.35  9230.01  32.12
986.0  29617.10  9761.00  32.96
996.0  29682.46  10286.32  34.65
1006.0  29574.85  10776.92  36.44
1016.0  29765.57  11454.97  38.48
1026.0  29729.52  12157.18  40.89
1036.0  29515.06  12780.20  43.30
1046.0  29711.45  13528.12  45.53
1056.0  29893.15  14105.01  47.18
1066.0  29897.52  14391.34  48.14
1076.0  29800.79  14355.98  48.17
1086.0  29886.99  14166.79  47.40
1096.0  29929.51  13729.78  45.87
1106.0  29866.48  13148.54  44.02
1116.0  29674.06  12462.00  42.00
1126.0  29628.74  11468.93  38.71
1136.0  29657.68  9812.67  33.09
1146.0  29635.14  8141.17  27.47
1156.0  29553.21  7179.68  24.29
1166.0  29503.66  6810.26  23.08
1176.0  29484.94  6624.28  22.47
1186.0  29538.64  6517.46  22.06
1196.0  29214.89  6357.92  21.76
1206.0  28979.48  6299.06  21.74
1216.0  28818.50  6314.86  21.91
1226.0  28656.56  6368.12  22.22
1236.0  28531.50  6432.33  22.54
1246.0  28361.18  6464.48  22.79
1256.0  28203.68  6484.96  22.99
1266.0  28029.85  6435.25  22.96
1276.0  28088.39  6381.22  22.72
1286.0  28124.94  6241.37  22.19
1296.0  27958.41  5969.54  21.35
1306.0  27627.28  5592.98  20.24
1316.0  27221.07  5133.25  18.86
1326.0  26818.19  4651.87  17.35
1336.0  26392.47  4212.13  15.96
1346.0  25960.75  3837.16  14.78
1356.0  25324.13  3515.22  13.88
1366.0  24931.33  3209.01  12.87
1376.0  24859.99  2883.80  11.60
1386.0  24632.06  2420.16  9.83
1396.0  24380.47  1992.15  8.17
1406.0  24113.09  1703.53  7.06
1416.0  24100.63  1558.33  6.47
1426.0  24059.20  1486.34  6.18
1436.0  23972.09  1448.60  6.04
1446.0  23864.15  1419.84  5.95
1456.0  23721.80  1407.64  5.93
1466.0  23605.52  1410.10  5.97
1476.0  23392.42  1429.89  6.11
1486.0  23242.80  1470.56  6.33
1496.0  23046.32  1523.56  6.61
1506.0  22839.62  1562.36  6.84
1516.0  22613.88  1597.31  7.06
1526.0  22400.45  1615.11  7.21
1536.0  22235.76  1638.60  7.37
1546.0  22015.88  1692.64  7.69
1556.0  21843.28  1735.70  7.95
1566.0  21667.65  1769.44  8.17
1576.0  21395.50  1808.83  8.45
1586.0  21183.04  1837.73  8.68
1596.0  20952.60  1837.90  8.77
1606.0  20718.70  1860.26  8.98
1616.0  20474.49  1873.10  9.15
1626.0  20247.31  1877.26  9.27
1636.0  19983.73  1873.84  9.38
1646.0  19698.46  1887.05  9.58
1656.0  19408.32  1874.29  9.66
1666.0  19124.83  1854.35  9.70
1676.0  18864.06  1819.36  9.64
1686.0  18855.84  1789.76  9.49
1696.0  18634.96  1746.73  9.37
1706.0  18370.29  1684.97  9.17
1716.0  17962.80  1611.08  8.97
1726.0  17703.75  1543.89  8.72
1736.0  17485.45  1504.75  8.61
1746.0  17265.19  1461.08  8.46
1756.0  16948.63  1406.69  8.30
1766.0  16694.46  1366.51  8.19
1776.0  16556.01  1337.14  8.08
1786.0  16371.39  1306.24  7.98
1796.0  16140.67  1283.42  7.95
1806.0  15938.14  1264.69  7.93
1816.0  15678.97  1246.03  7.95
1826.0  15392.26  1217.86  7.91
1836.0  15002.97  1184.40  7.89
1846.0  14761.21  1136.84  7.70
1856.0  14556.19  1088.61  7.48
1866.0  14407.28  1025.80  7.12
1876.0  14196.45  892.60  6.29
1886.0  14007.84  817.47  5.84
1896.0  13666.82  734.62  5.38
1906.0  12741.66  516.00  4.05
1916.0  12564.20  525.41  4.18
1926.0  12460.23  533.81  4.28
1936.0  12370.80  515.54  4.17
1946.0  12350.77  522.49  4.23
1956.0  12226.83  529.50  4.33
1966.0  12235.64  554.12  4.53
1976.0  12109.13  569.59  4.70
1986.0  11959.16  561.35  4.69
1996.0  11765.88  574.93  4.89
2006.0  11671.47  586.14  5.02
2016.0  11489.77  601.90  5.24
2026.0  11296.39  582.45  5.16
2036.0  11118.89  586.41  5.27
2046.0  10967.77  600.99  5.48
2056.0  10772.24  598.13  5.55
2066.0  10586.51  595.80  5.63
2076.0  10437.29  606.62  5.81
2086.0  10345.87  603.37  5.83
2096.0  10147.65  593.06  5.84
2106.0  9962.90  596.90  5.99
2116.0  9924.42  629.39  6.34
2126.0  9819.65  618.50  6.30
2136.0  9628.14  598.46  6.22
2146.0  9347.98  598.82  6.41
2156.0  9207.07  595.30  6.47
2166.0  9045.30  590.04  6.52
2176.0  8862.98  588.65  6.64
2186.0  8784.19  577.29  6.57
2196.0  8710.92  572.02  6.57
2206.0  8676.64  582.93  6.72
2216.0  8628.13  562.37  6.52
2226.0  8514.03  540.21  6.34
2236.0  8471.23  527.74  6.23
2246.0  8264.26  522.61  6.32
2256.0  8190.87  472.73  5.77
2266.0  8126.90  492.80  6.06
2276.0  8029.96  463.21  5.77
2286.0  7925.78  443.51  5.60
2296.0  7890.23  419.09  5.31
2306.0  7669.48  411.11  5.36
2316.0  7409.17  396.59  5.35
2326.0  7407.33  388.79  5.25
2336.0  7352.94  381.10  5.18
2346.0  7306.66  350.00  4.79
2356.0  7113.81  346.74  4.87
2366.0  7033.05  339.93  4.83
2376.0  6902.02  327.81  4.75
2386.0  6802.63  324.28  4.77
2396.0  6698.31  339.91  5.07
2406.0  6580.89  289.81  4.40
2416.0  6486.45  284.01  4.38
2426.0  6373.82  265.37  4.16
2436.0  6209.95  276.87  4.46
2446.0  6115.19  296.55  4.85
2456.0  6033.36  265.79  4.41
2466.0  5852.24  253.00  4.32
2476.0  5728.44  260.34  4.54
2486.0  5584.08  242.32  4.34
2496.0  5488.96  207.69  3.78
2506.0  5754.08  241.69  4.20
