/*** Spectra Vista SIG Data ***/
name= GT.sig
comm= SIG file reprocesed for matching/overlap;Averaged Ref/Tar of files: GD2T4,GD2T5,GD2T6
data=
346.4  509.60  132.49  26.00
347.9  549.06  135.12  24.61
349.5  608.40  136.45  22.43
351.1  655.20  140.61  21.46
352.6  708.40  137.89  19.46
354.2  752.68  150.10  19.94
355.7  818.30  153.11  18.71
357.3  873.81  158.12  18.10
358.8  891.23  163.10  18.30
360.4  967.31  168.37  17.41
361.9  1009.93  163.44  16.18
363.5  1059.53  168.97  15.95
365.1  1102.67  170.60  15.47
366.6  1156.59  173.08  14.96
368.2  1218.77  174.14  14.29
369.7  1306.00  168.91  12.93
371.3  1379.56  178.67  12.95
372.8  1457.48  180.17  12.36
374.4  1528.58  178.45  11.67
375.9  1575.56  180.07  11.43
377.4  1632.76  185.18  11.34
379.0  1683.54  182.04  10.81
380.5  1741.87  182.60  10.48
382.1  1805.51  181.24  10.04
383.6  1862.60  181.44  9.74
385.2  1949.75  184.43  9.46
386.7  2036.04  184.11  9.04
388.3  2135.96  190.59  8.92
389.8  2212.47  196.18  8.87
391.3  2314.34  203.12  8.78
392.9  2392.65  210.53  8.80
394.4  2474.90  218.81  8.84
395.9  2552.82  234.04  9.17
397.5  2664.75  251.08  9.42
399.0  2774.82  243.49  8.77
400.6  2852.64  234.33  8.21
402.1  2910.24  229.45  7.88
403.6  2965.71  224.73  7.58
405.1  3036.77  227.28  7.48
406.7  3133.76  230.57  7.36
408.2  3234.33  237.30  7.34
409.7  3330.88  241.62  7.25
411.3  3437.91  256.12  7.45
412.8  3528.93  267.02  7.57
414.3  3634.54  275.10  7.57
415.8  3740.00  284.67  7.61
417.4  3868.37  296.51  7.66
418.9  3954.39  302.25  7.64
420.4  4037.85  309.07  7.65
421.9  4106.74  309.76  7.54
423.5  4196.00  307.91  7.34
425.0  4263.51  311.95  7.32
426.5  4364.50  316.19  7.24
428.0  4488.82  322.93  7.19
429.5  4615.58  328.11  7.11
431.1  4756.23  333.85  7.02
432.6  4917.76  344.51  7.01
434.1  5064.68  353.94  6.99
435.6  5199.35  365.59  7.03
437.1  5333.25  373.88  7.01
438.6  5454.84  384.09  7.04
440.1  5584.70  395.44  7.08
441.6  5717.14  411.18  7.19
443.1  5852.25  424.71  7.26
444.7  5982.11  436.48  7.30
446.2  6104.50  454.40  7.44
447.7  6213.60  473.21  7.62
449.2  6315.84  491.62  7.78
450.7  6414.72  496.43  7.74
452.2  6543.45  507.49  7.76
453.7  6682.65  521.00  7.80
455.2  6842.54  536.11  7.83
456.7  7029.44  554.99  7.90
458.2  7231.16  575.04  7.95
459.7  7428.75  599.90  8.08
461.2  7633.63  618.93  8.11
462.7  7815.14  637.00  8.15
464.2  8000.76  657.82  8.22
465.7  8191.53  678.41  8.28
467.2  8352.58  694.54  8.32
468.7  8552.00  717.87  8.39
470.2  8711.17  743.04  8.53
471.7  8854.00  777.10  8.78
473.2  9050.37  810.44  8.95
474.6  9252.88  812.69  8.78
476.1  9378.88  799.95  8.53
477.6  9464.51  807.01  8.53
479.1  9567.20  816.22  8.53
480.6  9658.16  832.12  8.62
482.1  9797.74  849.06  8.67
483.6  9963.22  867.91  8.71
485.1  10140.49  894.44  8.82
486.6  10356.19  920.62  8.89
488.0  10562.50  949.43  8.99
489.5  10784.97  984.08  9.12
491.0  10998.86  1021.68  9.29
492.5  11224.98  1070.71  9.54
494.0  11462.99  1116.16  9.74
495.4  11663.85  1167.32  10.01
496.9  11870.36  1223.55  10.31
498.4  12074.30  1280.66  10.61
499.9  12278.41  1345.61  10.96
501.4  12476.75  1419.50  11.38
502.8  12664.51  1497.64  11.83
504.3  12846.60  1583.04  12.32
505.8  13033.73  1673.50  12.84
507.2  13172.68  1766.21  13.41
508.7  13289.99  1864.75  14.03
510.2  13412.81  1969.10  14.68
511.6  13494.72  2071.99  15.35
513.1  13630.43  2190.40  16.07
514.6  13795.53  2318.46  16.81
516.0  13946.28  2443.21  17.52
517.5  14135.83  2589.69  18.32
519.0  14365.19  2747.41  19.13
520.5  14579.60  2908.27  19.95
521.9  14828.55  3082.46  20.79
523.4  15093.49  3260.18  21.60
524.8  15349.14  3434.80  22.38
526.3  15633.70  3616.75  23.13
527.8  15915.89  3793.32  23.83
529.2  16178.21  3962.02  24.49
530.7  16455.24  4131.96  25.11
532.1  16698.15  4281.94  25.64
533.6  16994.07  4437.51  26.11
535.0  17295.55  4594.59  26.57
536.5  17581.25  4738.34  26.95
538.0  17895.84  4886.79  27.31
539.4  18160.64  5026.41  27.68
540.9  18488.86  5179.12  28.01
542.3  18738.28  5302.94  28.30
543.8  18940.29  5396.41  28.49
545.2  19020.35  5454.27  28.68
546.6  19057.19  5507.51  28.90
548.1  19121.11  5559.42  29.07
549.5  19166.91  5615.25  29.30
551.0  19217.70  5651.87  29.41
552.4  19311.21  5699.57  29.51
553.9  19371.38  5725.37  29.56
555.3  19461.20  5751.72  29.55
556.8  19596.88  5783.01  29.51
558.2  19743.75  5804.78  29.40
559.6  19902.71  5830.24  29.29
561.1  20117.50  5860.83  29.13
562.5  20332.52  5894.64  28.99
564.0  20611.34  5927.69  28.76
565.4  20865.50  5954.53  28.54
566.8  21177.73  5983.37  28.25
568.3  21463.05  6000.45  27.96
569.7  21776.78  6008.86  27.59
571.1  22080.65  6010.86  27.22
572.6  22373.82  6006.31  26.85
574.0  22675.95  6001.38  26.47
575.4  22958.44  5993.55  26.11
576.9  23231.09  5982.67  25.75
578.3  23477.03  5969.30  25.43
579.7  23721.74  5959.00  25.12
581.1  23920.49  5936.38  24.82
582.6  24132.47  5925.38  24.55
584.0  24305.80  5906.89  24.30
585.4  24549.94  5907.72  24.06
586.8  24845.17  5921.42  23.83
588.3  25201.80  5950.15  23.61
589.7  25517.70  5972.93  23.41
591.1  25735.55  5972.12  23.21
592.5  25883.00  5966.37  23.05
594.0  25998.42  5948.41  22.88
595.4  26057.54  5933.96  22.77
596.8  26115.38  5916.48  22.66
598.2  26174.55  5893.37  22.52
599.6  26202.06  5866.38  22.39
601.0  26298.70  5851.09  22.25
602.4  26372.18  5827.04  22.10
603.9  26501.77  5809.51  21.92
605.3  26625.41  5795.40  21.77
606.7  26749.80  5765.04  21.55
608.1  26941.18  5752.17  21.35
609.5  27151.69  5739.16  21.14
610.9  27387.74  5727.46  20.91
612.3  27589.20  5707.97  20.69
613.7  27871.80  5712.45  20.50
615.1  28061.64  5700.02  20.31
616.5  28235.16  5685.55  20.14
617.9  28534.12  5690.16  19.94
619.3  28808.15  5685.34  19.74
620.7  29149.14  5703.32  19.57
622.1  29527.66  5757.35  19.50
623.5  29951.83  5857.36  19.56
624.9  30436.35  5993.93  19.69
626.3  30757.12  6113.00  19.88
627.7  30461.43  6098.05  20.02
629.1  30188.34  6075.44  20.13
630.5  30083.03  6069.04  20.17
631.9  30076.12  6070.77  20.18
633.3  30078.24  6049.09  20.11
634.7  30183.54  6024.99  19.96
636.1  30268.81  5959.81  19.69
637.5  30374.19  5916.83  19.48
638.9  30520.15  5882.33  19.27
640.2  30643.60  5789.67  18.89
641.6  30733.56  5619.43  18.28
643.0  30777.50  5435.15  17.66
644.4  30869.16  5261.34  17.04
645.8  30855.38  5105.02  16.54
647.2  31023.20  4960.75  15.99
648.5  31185.15  4781.12  15.33
649.9  31117.13  4535.96  14.58
651.3  31099.80  4197.64  13.50
652.7  31059.00  3844.38  12.38
654.1  30961.56  3796.93  12.26
655.5  30829.51  3831.44  12.43
656.8  30685.81  3855.98  12.57
658.2  30861.69  3896.02  12.62
659.6  31181.89  3901.81  12.51
660.9  31452.29  3862.06  12.28
662.3  31767.46  3822.20  12.03
663.7  32102.70  3780.84  11.78
665.0  32334.98  3727.12  11.53
666.4  32575.38  3669.64  11.27
667.8  32873.84  3630.50  11.04
669.1  33084.01  3618.02  10.94
670.5  33327.47  3610.87  10.83
671.9  33513.12  3602.37  10.75
673.2  33742.50  3614.74  10.71
674.6  33950.66  3637.08  10.71
676.0  34219.05  3669.71  10.72
677.3  34494.18  3725.75  10.80
678.7  34767.13  3817.35  10.98
680.0  35103.31  3955.02  11.27
681.4  35420.13  4123.37  11.64
682.8  35763.00  4345.25  12.15
684.1  36073.44  4611.98  12.78
685.5  36318.59  4950.43  13.63
686.8  36607.26  5381.17  14.70
688.2  36844.31  5905.23  16.03
689.5  36898.97  6478.49  17.56
690.9  36950.15  7134.25  19.31
692.2  37008.15  7881.54  21.30
693.6  37024.93  8664.13  23.40
694.9  37005.38  9490.17  25.65
696.2  37027.13  10368.29  28.00
697.6  37047.86  11273.12  30.43
698.9  37049.76  12177.09  32.87
700.3  37075.62  13083.71  35.29
701.6  37124.24  13987.42  37.68
703.0  37178.40  14874.64  40.01
704.3  37172.20  15736.67  42.33
705.6  37157.22  16528.71  44.48
707.0  37168.46  17317.86  46.59
708.3  37076.04  18005.06  48.56
709.6  36967.81  18663.60  50.49
711.0  36867.73  19269.75  52.27
712.3  36770.31  19825.20  53.92
713.6  36755.88  20398.11  55.50
714.9  36684.64  20915.25  57.01
716.3  36701.44  21461.01  58.47
717.6  36734.04  21999.89  59.89
718.9  36680.73  22460.26  61.23
720.2  36496.25  22837.47  62.57
721.6  36394.28  23209.58  63.77
722.9  36240.12  23508.40  64.87
724.2  36067.30  23711.39  65.74
725.5  35963.70  23921.80  66.52
726.8  35833.96  24116.28  67.30
728.1  35810.80  24344.22  67.98
729.5  35779.10  24527.40  68.55
730.8  35779.13  24692.25  69.01
732.1  35704.25  24813.84  69.50
733.4  35690.92  24938.81  69.87
734.7  35685.89  25070.54  70.25
736.0  35729.66  25203.44  70.54
737.3  35717.44  25266.77  70.74
738.6  35830.21  25455.03  71.04
739.9  36014.88  25676.40  71.29
741.2  36161.58  25881.49  71.57
742.5  36363.94  26144.88  71.90
743.8  36737.66  26518.03  72.18
745.1  37309.08  27039.07  72.47
746.4  37926.98  27664.06  72.94
747.7  38536.99  28349.19  73.56
749.0  39118.92  29054.73  74.27
750.3  39493.02  29559.20  74.85
751.6  39440.80  29640.62  75.15
752.9  39084.79  29414.22  75.26
754.2  38731.25  29120.97  75.19
755.4  38386.91  28791.65  75.00
756.7  38244.09  28693.38  75.03
758.0  38261.36  28728.17  75.08
759.3  38489.95  28931.26  75.17
760.6  38786.44  29195.12  75.27
761.9  39062.28  29435.85  75.36
763.1  39197.21  29603.46  75.52
764.4  39371.54  29799.05  75.69
765.7  39490.75  29964.13  75.88
767.0  39577.16  30105.59  76.07
768.2  39644.64  30223.42  76.24
769.5  39697.68  30311.86  76.36
770.8  39836.32  30494.17  76.55
772.0  39856.44  30539.47  76.62
773.3  39898.95  30618.05  76.74
774.6  39978.84  30735.40  76.88
775.8  40054.79  30890.69  77.12
777.1  40085.96  30970.10  77.26
778.4  40059.57  30972.49  77.32
779.6  39999.54  31007.70  77.52
780.9  39948.00  30964.27  77.51
782.1  39837.20  30855.43  77.45
783.4  39802.88  30893.82  77.62
784.6  39851.08  30934.13  77.62
785.9  40095.40  31149.23  77.69
787.1  40531.58  31599.25  77.96
788.4  40834.19  32113.50  78.64
789.6  40796.10  32316.40  79.21
790.9  40479.11  32176.19  79.49
792.1  40128.24  31855.99  79.39
793.4  39739.41  31558.30  79.41
794.6  39507.48  31403.14  79.49
795.8  39314.07  31259.06  79.51
797.1  39097.95  31080.72  79.49
798.3  38940.83  30962.09  79.51
799.5  38821.14  30944.15  79.71
800.8  38733.05  30881.03  79.73
802.0  38591.76  30831.83  79.89
803.2  38469.72  30769.75  79.98
804.5  38377.94  30730.08  80.07
805.7  38264.87  30694.51  80.22
806.9  38181.95  30639.68  80.25
808.1  38074.65  30591.39  80.35
809.4  38033.33  30580.33  80.40
810.6  37951.55  30543.85  80.48
811.8  37942.61  30538.81  80.49
813.0  37965.80  30542.20  80.45
814.2  37975.49  30567.21  80.49
815.4  38039.93  30686.63  80.67
816.6  38032.65  30748.27  80.85
817.9  38050.16  30836.81  81.04
819.1  37997.24  30814.89  81.10
820.3  37865.18  30730.97  81.16
821.5  37787.61  30645.71  81.10
822.7  37714.41  30602.41  81.14
823.9  37704.87  30572.21  81.08
825.1  37688.07  30561.62  81.09
826.3  37716.38  30544.98  80.99
827.5  37726.06  30527.07  80.92
828.7  37779.60  30524.03  80.80
829.9  37796.29  30495.53  80.68
831.0  37849.02  30489.36  80.56
832.2  37913.75  30522.06  80.50
833.4  37950.44  30533.43  80.46
834.6  37978.13  30546.88  80.43
835.8  38031.53  30565.71  80.37
837.0  38073.26  30601.63  80.38
838.1  38178.69  30696.47  80.40
839.3  38239.24  30747.88  80.41
840.5  38296.24  30817.10  80.47
841.7  38381.58  30883.75  80.47
842.9  38485.06  30945.63  80.41
844.0  38543.94  31013.17  80.46
845.2  38626.85  31117.39  80.56
846.4  38724.98  31203.48  80.58
847.5  38888.12  31365.46  80.66
848.7  39002.30  31511.18  80.79
849.9  39141.74  31673.08  80.92
851.0  39173.78  31790.07  81.15
852.2  39245.07  31879.04  81.23
853.3  39202.67  31894.59  81.36
854.5  39188.19  31917.37  81.45
855.6  39170.88  31917.19  81.48
856.8  39193.80  31948.20  81.51
857.9  39192.81  31948.69  81.52
859.1  39326.60  32030.85  81.45
860.2  39300.24  32050.61  81.55
861.4  39344.78  32074.37  81.52
862.5  39384.29  32112.72  81.54
863.7  39467.66  32182.43  81.54
864.8  39454.45  32175.36  81.55
865.9  39398.65  32120.80  81.53
867.1  39448.45  32143.08  81.48
868.2  39441.53  32150.21  81.51
869.3  39465.67  32179.27  81.54
870.5  39438.89  32108.05  81.41
871.6  39473.54  32093.63  81.30
872.7  39541.37  32110.51  81.21
873.9  39548.50  32144.28  81.28
875.0  39546.05  32093.11  81.15
876.1  39583.15  32061.91  81.00
877.2  39616.79  32070.43  80.95
878.3  39601.98  32044.79  80.92
879.4  39662.11  32051.14  80.81
880.5  39702.60  32071.20  80.78
881.7  39698.10  32031.13  80.69
882.8  39775.46  32067.33  80.62
883.9  39785.32  32099.16  80.68
885.0  39766.55  32082.96  80.68
886.1  39735.85  32097.67  80.78
887.2  39664.66  31991.55  80.66
888.3  39567.00  31924.57  80.68
889.4  39535.02  31827.16  80.50
890.5  39459.91  31748.03  80.46
891.6  39428.33  31679.80  80.35
892.7  39429.01  31631.27  80.22
893.8  39492.50  31585.52  79.98
894.9  39505.51  31532.58  79.82
896.0  39527.49  31491.06  79.67
897.0  39487.40  31490.21  79.75
898.1  39490.45  31437.57  79.61
899.2  39536.22  31414.78  79.46
900.3  39503.73  31291.24  79.21
901.4  39454.09  31205.03  79.09
902.4  39461.49  31182.82  79.02
903.5  39418.10  31073.05  78.83
904.6  39431.18  31043.38  78.73
905.7  39454.64  31021.28  78.63
906.7  39397.52  30969.46  78.61
907.8  39514.80  30953.26  78.33
908.9  39443.33  30851.12  78.22
909.9  39411.21  30770.10  78.07
911.0  39357.50  30662.17  77.91
912.1  39280.99  30582.92  77.86
913.1  39233.48  30488.36  77.71
914.2  39173.92  30296.08  77.34
915.2  39170.79  30217.75  77.14
916.3  39094.50  30135.26  77.08
917.3  39076.47  30059.65  76.93
918.4  39031.30  29917.21  76.65
919.4  39022.48  29801.10  76.37
920.5  39026.74  29698.06  76.10
921.5  39018.63  29583.65  75.82
922.6  38959.72  29439.04  75.56
923.6  39026.05  29350.60  75.21
924.7  39022.50  29227.10  74.90
925.7  39030.84  29103.35  74.57
926.7  39009.32  29004.68  74.35
927.8  39032.57  28932.71  74.12
928.8  39142.62  28879.15  73.78
929.9  39330.10  28826.24  73.29
930.9  39447.46  28782.76  72.96
931.9  39602.61  28728.23  72.54
932.9  39864.58  28792.77  72.23
934.0  39909.81  28654.76  71.80
935.0  39942.68  28505.80  71.37
936.0  39929.50  28298.50  70.87
937.0  39883.94  28100.75  70.46
938.1  39848.52  27878.04  69.96
939.1  39753.89  27659.48  69.58
940.1  39867.76  27548.09  69.10
941.1  39995.43  27514.95  68.80
942.1  40229.45  27484.50  68.32
943.1  40393.76  27419.57  67.88
944.1  40552.56  27324.76  67.38
945.2  40570.32  27194.44  67.03
946.2  40685.67  27044.62  66.47
947.2  40740.25  26914.07  66.06
948.2  40874.09  26808.83  65.59
949.2  40954.06  26636.03  65.04
950.2  41026.00  26442.10  64.45
951.2  41012.16  26248.54  64.00
952.2  41170.94  26149.50  63.51
953.2  41257.13  26006.28  63.03
954.2  41395.95  25896.84  62.56
955.2  41401.94  25692.25  62.06
956.2  41391.82  25486.34  61.57
957.2  41524.97  25394.99  61.16
958.2  41486.28  25309.24  61.01
959.2  41625.00  25221.42  60.59
960.1  41647.94  25173.71  60.44
961.1  41725.78  25113.22  60.19
962.1  41752.50  25046.75  59.99
963.1  41720.60  25060.33  60.07
964.1  41837.60  25047.77  59.87
965.1  41932.95  25039.56  59.71
966.1  41961.44  25005.06  59.59
967.0  42058.17  25052.83  59.57
968.0  42094.69  25011.52  59.42
969.0  42115.20  25040.85  59.46
970.0  42092.26  25024.33  59.45
971.0  42266.18  25048.31  59.26
971.9  42275.33  25047.15  59.25
972.9  42388.85  25098.92  59.21
973.9  42492.13  25140.96  59.17
974.9  42580.28  25233.96  59.26
975.8  42630.52  25339.90  59.44
976.8  42806.43  25337.89  59.19
977.8  42848.34  25392.55  59.26
978.8  42868.95  25487.56  59.45
979.7  43050.58  25571.21  59.40
981.4  43484.76  24806.53  57.05
985.3  43466.28  25017.70  57.56
989.3  43739.41  25380.87  58.03
993.3  44088.36  25797.80  58.51
997.2  44246.85  26117.58  59.03
1001.2  44240.69  26427.74  59.74
1005.2  44147.66  26759.76  60.61
1009.1  44170.72  27170.02  61.51
1013.1  44298.35  27641.40  62.40
1017.1  44409.64  28134.20  63.35
1021.0  44418.65  28580.75  64.34
1025.0  44431.92  29023.72  65.32
1029.0  44310.95  29374.57  66.29
1032.9  44196.36  29720.08  67.25
1036.9  44214.81  30127.43  68.14
1040.9  44317.48  30580.82  69.00
1044.8  44471.57  31067.67  69.86
1048.8  44586.22  31502.29  70.65
1052.7  44660.98  31862.35  71.34
1056.7  44664.90  32128.63  71.93
1060.7  44652.74  32335.87  72.42
1064.6  44643.90  32495.74  72.79
1068.6  44545.19  32524.48  73.01
1072.5  44448.63  32498.34  73.11
1076.5  44390.31  32458.76  73.12
1080.4  44363.13  32390.20  73.01
1084.4  44428.99  32339.12  72.79
1088.3  44526.89  32249.46  72.43
1092.3  44515.11  32034.82  71.96
1096.2  44485.25  31766.46  71.41
1100.2  44489.30  31510.15  70.83
1104.1  44387.15  31159.43  70.20
1108.1  44344.78  30841.81  69.55
1112.0  44255.25  30479.39  68.87
1116.0  44078.91  30030.91  68.13
1119.9  43920.46  29531.40  67.24
1123.9  43980.05  29043.11  66.04
1127.8  43933.44  28308.48  64.43
1131.8  43891.20  27351.99  62.32
1135.7  43904.71  26243.60  59.77
1139.6  43873.24  25043.34  57.08
1143.6  43814.30  23881.59  54.51
1147.5  43764.96  22876.69  52.27
1151.4  43600.54  22027.26  50.52
1155.4  43567.43  21469.23  49.28
1159.3  43548.37  21102.13  48.46
1163.2  43379.84  20785.65  47.92
1167.2  43333.14  20618.14  47.58
1171.1  43320.14  20513.60  47.35
1175.0  43247.45  20390.42  47.15
1179.0  43203.54  20282.21  46.95
1182.9  43281.26  20231.58  46.74
1186.8  43262.79  20145.62  46.57
1190.7  43059.97  19982.10  46.41
1194.7  42822.73  19833.97  46.32
1198.6  42602.18  19732.02  46.32
1202.5  42456.57  19668.23  46.33
1206.4  42335.53  19636.71  46.38
1210.3  42230.32  19645.16  46.52
1214.2  42126.94  19676.98  46.71
1218.2  41984.08  19714.56  46.96
1222.1  41854.50  19771.18  47.24
1226.0  41760.57  19850.65  47.53
1229.9  41673.90  19930.12  47.82
1233.8  41576.55  19989.35  48.08
1237.7  41528.30  20063.11  48.31
1241.6  41457.25  20125.43  48.55
1245.5  41309.15  20134.96  48.74
1249.4  41175.26  20146.37  48.93
1253.3  41058.30  20162.48  49.11
1257.2  40978.33  20171.32  49.22
1261.1  40873.57  20147.62  49.29
1265.0  40757.89  20088.76  49.29
1268.9  40587.74  19983.54  49.24
1272.8  40626.75  19980.40  49.18
1276.7  40780.33  20007.38  49.06
1280.6  40842.56  19948.67  48.84
1284.5  40748.73  19796.33  48.58
1288.4  40697.88  19648.34  48.28
1292.3  40562.50  19426.00  47.89
1296.2  40411.46  19149.98  47.39
1300.1  40239.63  18837.05  46.81
1303.9  40009.73  18471.05  46.17
1307.8  39785.54  18063.67  45.40
1311.7  39554.21  17620.53  44.55
1315.6  39326.35  17152.53  43.62
1319.5  39086.11  16646.85  42.59
1323.3  38870.69  16149.31  41.55
1327.2  38681.53  15661.63  40.49
1331.1  38474.56  15161.37  39.41
1335.0  38203.08  14657.41  38.37
1338.8  38009.09  14205.34  37.37
1342.7  37876.27  13795.62  36.42
1346.5  37598.34  13347.33  35.50
1350.4  37400.07  12951.24  34.63
1354.3  37094.65  12553.37  33.84
1358.1  36731.71  12150.81  33.08
1362.0  36487.36  11776.85  32.28
1365.8  36370.47  11413.12  31.38
1369.7  36432.94  11064.93  30.37
1373.5  36366.82  10624.35  29.21
1377.4  36166.21  10076.28  27.86
1381.2  35990.96  9443.01  26.24
1385.1  35936.27  8768.67  24.40
1389.0  35813.45  8076.08  22.55
1392.8  35598.92  7412.97  20.82
1396.6  35460.61  6825.94  19.25
1400.5  35253.63  6302.68  17.88
1404.3  35072.57  5872.42  16.74
1408.2  35016.72  5536.53  15.81
1412.0  34945.02  5272.52  15.09
1415.8  34962.39  5084.31  14.54
1419.6  34891.95  4931.25  14.13
1423.5  34842.23  4812.05  13.81
1427.3  34796.45  4719.64  13.56
1431.1  34758.75  4654.65  13.39
1434.9  34669.05  4600.12  13.27
1438.8  34606.94  4562.87  13.18
1442.6  34573.84  4532.14  13.11
1446.4  34441.31  4497.82  13.06
1450.2  34332.12  4481.87  13.05
1454.0  34220.52  4473.36  13.07
1457.8  34188.19  4479.32  13.10
1461.6  34155.00  4496.31  13.16
1465.4  34045.70  4515.29  13.26
1469.2  33870.20  4536.35  13.39
1473.0  33726.92  4577.53  13.57
1476.8  33664.28  4649.40  13.81
1480.7  33601.58  4725.89  14.06
1484.4  33488.64  4812.32  14.37
1488.2  33386.04  4920.24  14.74
1492.0  33257.25  5028.57  15.12
1495.8  33142.20  5130.89  15.48
1499.6  33034.11  5213.59  15.78
1503.4  32933.47  5283.76  16.04
1507.2  32852.74  5351.50  16.29
1510.9  32722.34  5414.67  16.55
1514.7  32573.11  5469.21  16.79
1518.5  32453.90  5519.32  17.01
1522.3  32317.90  5560.04  17.20
1526.0  32200.64  5633.45  17.49
1529.8  32127.61  5750.97  17.90
1533.6  32011.66  5830.01  18.21
1537.3  31894.88  5877.65  18.43
1541.1  31782.08  5939.41  18.69
1544.8  31651.20  6015.20  19.00
1548.6  31528.46  6077.31  19.28
1552.4  31450.00  6127.10  19.48
1556.1  31366.15  6209.77  19.80
1559.9  31270.43  6327.34  20.23
1563.6  31150.17  6420.04  20.61
1567.3  31046.10  6496.82  20.93
1571.1  30855.35  6555.86  21.25
1574.8  30723.08  6634.27  21.59
1578.6  30633.26  6707.10  21.89
1582.3  30519.48  6747.33  22.11
1586.0  30400.45  6790.26  22.34
1589.8  30269.89  6829.83  22.56
1593.5  30123.48  6855.31  22.76
1597.2  29998.09  6891.67  22.97
1600.9  29883.71  6935.06  23.21
1604.7  29753.95  6968.70  23.42
1608.4  29639.51  7004.67  23.63
1612.1  29489.62  7027.18  23.83
1615.8  29365.23  7051.19  24.01
1619.5  29298.37  7088.61  24.19
1623.2  29161.12  7106.82  24.37
1626.9  29003.45  7113.42  24.53
1630.6  28846.40  7117.22  24.67
1634.3  28721.00  7130.68  24.83
1638.0  28599.28  7147.01  24.99
1641.7  28456.49  7159.56  25.16
1645.4  28299.47  7156.46  25.29
1649.1  28138.66  7142.21  25.38
1652.8  28008.70  7133.99  25.47
1656.4  27859.80  7112.91  25.53
1660.1  27720.43  7092.30  25.59
1663.8  27551.22  7062.00  25.63
1667.5  27406.07  7035.25  25.67
1671.1  27282.14  7006.44  25.68
1674.8  27100.13  6946.12  25.63
1678.5  27060.12  6912.84  25.55
1682.1  27085.37  6884.88  25.42
1685.8  27087.74  6848.80  25.28
1689.5  26985.46  6788.11  25.15
1693.1  26859.21  6715.79  25.00
1696.8  26718.75  6636.55  24.84
1700.4  26575.97  6544.94  24.63
1704.0  26457.91  6459.20  24.41
1707.7  26210.69  6343.32  24.20
1711.3  25940.59  6214.74  23.96
1715.0  25755.85  6111.40  23.73
1718.6  25603.66  6008.37  23.47
1722.2  25471.82  5906.02  23.19
1725.9  25346.15  5811.31  22.93
1729.5  25225.17  5729.53  22.71
1733.1  25122.33  5676.83  22.60
1736.7  25028.77  5635.25  22.52
1740.3  24869.68  5572.37  22.41
1744.0  24796.20  5524.38  22.28
1747.5  24670.34  5457.85  22.12
1751.2  24460.97  5361.71  21.92
1754.8  24300.77  5274.03  21.70
1758.4  24168.99  5194.74  21.49
1762.0  24004.67  5118.03  21.32
1765.5  23878.06  5065.48  21.21
1769.1  23824.80  5034.40  21.13
1772.7  23745.17  4996.95  21.04
1776.3  23631.64  4943.46  20.92
1779.9  23517.13  4897.46  20.83
1783.5  23453.36  4871.55  20.77
1787.0  23338.16  4833.07  20.71
1790.6  23194.11  4793.50  20.67
1794.2  23099.94  4768.14  20.64
1797.8  23019.59  4747.96  20.63
1801.3  22943.45  4732.51  20.63
1804.9  22821.75  4707.50  20.63
1808.4  22758.56  4695.66  20.63
1812.0  22651.25  4677.04  20.65
1815.5  22537.46  4649.09  20.63
1819.1  22377.91  4606.88  20.59
1822.6  22230.86  4578.16  20.59
1826.2  22108.08  4545.91  20.56
1829.7  21962.63  4498.00  20.48
1833.2  21769.52  4443.22  20.41
1836.8  21568.82  4380.44  20.31
1840.3  21408.35  4328.54  20.22
1843.8  21283.15  4274.92  20.09
1847.3  21175.36  4216.98  19.91
1850.8  21026.88  4144.90  19.71
1854.3  20829.70  4050.22  19.44
1857.8  20716.80  3948.53  19.06
1861.3  20743.52  3842.49  18.52
1864.8  20771.48  3715.17  17.89
1868.3  20668.83  3554.98  17.20
1871.8  20505.60  3348.48  16.33
1875.3  20412.67  3132.68  15.35
1878.8  20386.82  2949.23  14.47
1882.3  20318.80  2757.22  13.57
1885.8  20165.84  2572.60  12.76
1889.3  19976.70  2435.57  12.19
1892.7  19815.25  2328.60  11.75
1896.2  19650.94  2247.75  11.44
1899.7  19441.16  2213.52  11.39
1901.7  18493.24  1246.21  6.74
1904.5  18663.12  1209.65  6.48
1907.2  18605.75  1195.42  6.43
1910.0  18464.96  1187.48  6.43
1912.7  18451.36  1180.99  6.40
1915.5  18338.72  1187.96  6.48
1918.2  18231.61  1164.15  6.39
1921.0  18078.76  1141.53  6.31
1923.7  18082.37  1163.92  6.44
1926.5  18028.91  1160.46  6.44
1929.2  17989.40  1152.26  6.41
1932.0  17961.44  1153.40  6.42
1934.7  17922.05  1156.87  6.46
1937.4  17800.47  1154.85  6.49
1940.2  17730.06  1161.72  6.55
1942.9  17801.07  1173.34  6.59
1945.6  17808.94  1185.85  6.66
1948.3  17731.12  1196.31  6.75
1951.1  17698.80  1196.98  6.76
1953.8  17700.00  1206.00  6.81
1956.5  17568.67  1223.96  6.97
1959.2  17632.03  1233.87  7.00
1961.9  17647.56  1242.66  7.04
1964.6  17543.58  1265.37  7.21
1967.3  17598.27  1278.63  7.27
1970.0  17419.60  1284.64  7.37
1972.8  17335.24  1291.39  7.45
1975.5  17419.52  1297.49  7.45
1978.2  17336.04  1314.00  7.58
1980.9  17221.82  1327.30  7.71
1983.5  17185.34  1343.65  7.82
1986.2  17183.55  1351.21  7.86
1988.9  17157.36  1374.49  8.01
1991.6  17017.92  1379.78  8.11
1994.3  16893.86  1375.81  8.14
1997.0  16913.63  1402.26  8.29
1999.7  16876.79  1417.65  8.40
2002.3  16857.27  1434.50  8.51
2005.0  16785.35  1454.63  8.67
2007.7  16706.93  1461.05  8.75
2010.4  16656.07  1463.67  8.79
2013.0  16600.58  1480.35  8.92
2015.7  16495.88  1478.62  8.96
2018.4  16401.61  1500.60  9.15
2021.0  16371.00  1512.05  9.24
2023.7  16264.64  1500.96  9.23
2026.4  16195.83  1512.55  9.34
2029.0  16138.97  1513.62  9.38
2031.7  16029.65  1521.00  9.49
2034.3  16012.75  1530.39  9.56
2037.0  15932.90  1539.81  9.66
2039.6  15864.39  1550.15  9.77
2042.3  15822.15  1549.26  9.79
2044.9  15747.27  1554.91  9.87
2047.5  15719.22  1560.52  9.93
2050.2  15638.00  1559.60  9.97
2052.8  15596.00  1575.47  10.10
2055.4  15487.61  1574.54  10.17
2058.1  15363.60  1567.07  10.20
2060.7  15311.01  1583.84  10.34
2063.3  15243.07  1589.33  10.43
2065.9  15200.63  1588.46  10.45
2068.6  15142.00  1606.14  10.61
2071.2  15102.27  1620.06  10.73
2073.8  15013.06  1607.17  10.71
2076.4  14939.89  1608.22  10.76
2079.0  14937.96  1621.37  10.85
2081.6  14955.68  1635.48  10.94
2084.2  14929.44  1645.97  11.02
2086.8  14795.01  1644.21  11.11
2089.4  14708.12  1647.16  11.20
2092.1  14645.50  1652.78  11.29
2094.7  14574.18  1663.93  11.42
2097.2  14543.50  1669.78  11.48
2099.8  14569.24  1669.10  11.46
2102.4  14455.51  1672.83  11.57
2105.0  14315.55  1674.85  11.70
2107.6  14281.54  1688.12  11.82
2110.2  14245.28  1684.16  11.82
2112.8  14225.04  1681.73  11.82
2115.3  14222.61  1711.79  12.04
2117.9  14223.97  1725.53  12.13
2120.5  14225.20  1735.40  12.20
2123.1  14136.53  1729.65  12.24
2125.6  14079.43  1730.65  12.29
2128.2  14012.88  1736.49  12.39
2130.8  13940.55  1737.45  12.46
2133.3  13889.33  1747.29  12.58
2135.9  13802.30  1748.33  12.67
2138.4  13704.95  1735.59  12.66
2141.0  13601.55  1737.54  12.77
2143.6  13585.34  1741.41  12.82
2146.1  13439.94  1722.84  12.82
2148.7  13282.54  1719.91  12.95
2151.2  13302.67  1728.71  13.00
2153.8  13324.47  1740.49  13.06
2156.3  13227.98  1726.72  13.05
2158.8  13160.05  1722.78  13.09
2161.4  13128.93  1728.71  13.17
2163.9  13034.58  1715.93  13.16
2166.4  12973.85  1716.84  13.23
2169.0  12959.07  1721.77  13.29
2171.5  12876.28  1712.90  13.30
2174.0  12786.55  1696.75  13.27
2176.5  12767.30  1707.29  13.37
2179.1  12718.27  1707.61  13.43
2181.6  12644.21  1701.31  13.46
2184.1  12612.60  1711.45  13.57
2186.6  12631.79  1714.58  13.57
2189.1  12551.10  1693.81  13.50
2191.6  12501.53  1682.33  13.46
2194.1  12512.72  1699.58  13.58
2196.6  12513.32  1710.79  13.67
2199.2  12564.98  1715.10  13.65
2201.7  12503.60  1684.58  13.47
2204.1  12450.01  1678.57  13.48
2206.6  12458.20  1710.83  13.73
2209.1  12429.94  1704.52  13.71
2211.6  12413.54  1687.62  13.59
2214.1  12385.83  1685.41  13.61
2216.6  12340.79  1680.13  13.61
2219.1  12355.98  1677.60  13.58
2221.6  12303.15  1659.71  13.49
2224.0  12230.10  1652.27  13.51
2226.5  12198.83  1632.35  13.38
2229.0  12234.63  1631.79  13.34
2231.5  12152.59  1616.26  13.30
2233.9  12137.64  1607.32  13.24
2236.4  12131.98  1596.75  13.16
2238.9  12024.13  1571.96  13.07
2241.3  12068.10  1571.51  13.02
2243.8  12017.57  1558.55  12.97
2246.2  11870.35  1518.36  12.79
2248.7  11882.39  1489.96  12.54
2251.2  11860.53  1493.77  12.59
2253.6  11784.96  1468.16  12.46
2256.1  11773.44  1442.56  12.25
2258.5  11793.92  1455.99  12.35
2260.9  11696.75  1427.90  12.21
2263.4  11668.53  1398.44  11.98
2265.8  11678.48  1382.24  11.84
2268.3  11583.48  1375.14  11.87
2270.7  11653.18  1365.17  11.71
2273.1  11608.55  1340.98  11.55
2275.6  11523.84  1335.04  11.59
2278.0  11553.06  1320.82  11.43
2280.4  11529.61  1317.41  11.43
2282.8  11402.06  1286.69  11.28
2285.3  11435.59  1276.67  11.16
2287.7  11531.47  1291.26  11.20
2290.1  11440.95  1253.21  10.95
2292.5  11408.96  1231.51  10.79
2294.9  11404.51  1232.92  10.81
2297.3  11303.39  1208.91  10.70
2299.7  11233.01  1164.76  10.37
2302.1  11231.11  1137.91  10.13
2304.5  11113.20  1119.81  10.08
2306.9  10995.60  1092.37  9.93
2309.3  10932.15  1089.30  9.96
2311.7  10856.55  1096.39  10.10
2314.1  10708.33  1075.17  10.04
2316.5  10641.94  1066.43  10.02
2318.9  10674.03  1073.45  10.06
2321.3  10672.73  1094.74  10.26
2323.7  10642.23  1092.84  10.27
2326.1  10606.96  1071.98  10.11
2328.4  10691.58  1076.75  10.07
2330.8  10736.25  1077.03  10.03
2333.2  10617.06  1068.02  10.06
2335.6  10582.60  1053.14  9.95
2337.9  10642.00  1036.38  9.74
2340.3  10592.40  1021.59  9.64
2342.7  10507.23  1008.55  9.60
2345.0  10502.01  1005.05  9.57
2347.4  10493.25  1007.25  9.60
2349.7  10277.63  963.97  9.38
2352.1  10236.25  940.58  9.19
2354.4  10290.21  954.23  9.27
2356.8  10243.45  930.96  9.09
2359.2  10187.67  931.67  9.15
2361.5  10122.93  955.57  9.44
2363.8  10144.75  938.35  9.25
2366.2  10159.49  934.16  9.19
2368.5  10097.05  931.53  9.23
2370.9  10118.68  928.96  9.18
2373.2  10072.53  924.81  9.18
2375.5  9932.38  888.41  8.94
2377.9  9918.93  881.28  8.88
2380.2  9923.89  891.90  8.99
2382.5  9856.28  876.11  8.89
2384.8  9822.88  869.23  8.85
2387.2  9807.99  867.34  8.84
2389.5  9759.69  859.34  8.80
2391.8  9772.85  841.34  8.61
2394.1  9716.63  836.51  8.61
2396.4  9652.48  822.52  8.52
2398.7  9714.10  823.31  8.48
2401.0  9598.25  815.93  8.50
2403.3  9511.80  791.82  8.32
2405.6  9521.83  808.06  8.49
2407.9  9458.88  806.61  8.53
2410.2  9400.00  790.44  8.41
2412.5  9350.27  767.33  8.21
2414.8  9330.30  761.69  8.16
2417.1  9280.68  755.32  8.14
2419.4  9294.64  751.98  8.09
2421.7  9214.94  748.20  8.12
2424.0  9156.02  748.47  8.17
2426.2  9223.40  724.03  7.85
2428.5  9129.27  715.70  7.84
2430.8  9112.40  721.22  7.91
2433.1  9071.93  708.06  7.80
2435.4  8991.17  716.16  7.97
2437.6  8963.19  677.00  7.55
2439.9  8866.09  649.47  7.33
2442.2  8873.80  678.81  7.65
2444.4  8827.50  683.46  7.74
2446.7  8812.56  640.45  7.27
2448.9  8870.66  653.36  7.37
2451.2  8802.92  671.49  7.63
2453.4  8732.64  642.84  7.36
2455.7  8702.87  650.74  7.48
2457.9  8608.05  657.31  7.64
2460.2  8594.01  626.78  7.29
2462.4  8611.20  630.24  7.32
2464.7  8503.63  641.35  7.54
2466.9  8416.62  635.58  7.55
2469.2  8471.54  650.33  7.68
2471.4  8370.38  599.61  7.16
2473.6  8261.63  571.31  6.92
2475.9  8256.69  609.60  7.38
2478.1  8211.66  596.63  7.27
2480.3  8173.00  603.34  7.38
2482.5  8177.69  593.31  7.26
2484.8  8119.06  570.40  7.03
2487.0  8110.30  577.72  7.12
2489.2  8058.48  565.37  7.02
2491.4  7946.29  563.57  7.09
2493.6  7987.26  551.29  6.90
2495.8  7981.68  541.09  6.78
2498.0  7985.07  524.23  6.57
2500.2  7961.63  542.01  6.81
2502.4  8125.20  586.08  7.21
2504.6  8272.59  579.05  7.00
2506.8  8348.61  568.27  6.81
