/*** Spectra Vista SIG Data ***/
name= GT2.sig
comm= Averaged Ref/Tar of files: GD6T4,GD6T5,GD6T6
data=
346.4  350.35  56.91  16.24
347.9  381.21  55.43  14.54
349.5  410.28  57.83  14.09
351.1  433.68  57.41  13.24
352.6  475.96  60.93  12.80
354.2  499.06  63.27  12.68
355.7  540.48  65.10  12.05
357.3  582.54  66.11  11.35
358.8  588.91  65.71  11.16
360.4  636.67  70.12  11.01
361.9  668.64  71.51  10.69
363.5  692.50  72.95  10.53
365.1  712.57  75.36  10.58
366.6  747.47  72.96  9.76
368.2  792.37  71.85  9.07
369.7  840.74  72.92  8.67
371.3  898.85  77.26  8.60
372.8  941.22  77.02  8.18
374.4  986.23  76.99  7.81
375.9  1017.83  77.01  7.57
377.4  1052.18  79.36  7.54
379.0  1086.82  79.78  7.34
380.5  1123.29  80.43  7.16
382.1  1153.93  82.94  7.19
383.6  1194.95  80.14  6.71
385.2  1251.25  79.75  6.37
386.7  1299.60  82.13  6.32
388.3  1372.34  83.52  6.09
389.8  1424.66  87.47  6.14
391.3  1483.01  89.86  6.06
392.9  1530.61  91.99  6.01
394.4  1562.39  99.11  6.34
395.9  1621.81  102.36  6.31
397.5  1711.90  104.65  6.11
399.0  1784.48  106.30  5.96
400.6  1838.09  104.52  5.69
402.1  1856.31  101.65  5.48
403.6  1888.03  101.49  5.38
405.1  1944.54  100.69  5.18
406.7  2010.40  103.49  5.15
408.2  2079.37  107.22  5.16
409.7  2148.16  109.61  5.10
411.3  2213.53  111.69  5.05
412.8  2271.65  116.13  5.11
414.3  2341.03  118.46  5.06
415.8  2417.50  124.00  5.13
417.4  2490.79  127.18  5.11
418.9  2548.98  127.17  4.99
420.4  2593.45  129.78  5.00
421.9  2640.22  131.81  4.99
423.5  2679.41  131.54  4.91
425.0  2722.85  132.31  4.86
426.5  2778.88  133.73  4.81
428.0  2849.90  135.05  4.74
429.5  2939.79  137.59  4.68
431.1  3042.79  143.71  4.72
432.6  3149.06  148.03  4.70
434.1  3259.99  152.46  4.68
435.6  3346.58  157.64  4.71
437.1  3441.75  160.16  4.65
438.6  3531.11  163.88  4.64
440.1  3611.12  168.64  4.67
441.6  3703.62  172.88  4.67
443.1  3787.76  176.31  4.65
444.7  3873.68  181.94  4.70
446.2  3941.61  187.21  4.75
447.7  4009.71  188.57  4.70
449.2  4084.56  190.22  4.66
450.7  4145.44  191.08  4.61
452.2  4210.01  192.70  4.58
453.7  4291.20  194.69  4.54
455.2  4393.26  199.37  4.54
456.7  4515.28  204.75  4.53
458.2  4654.47  210.75  4.53
459.7  4795.00  219.45  4.58
461.2  4934.06  224.04  4.54
462.7  5054.96  231.63  4.58
464.2  5177.07  238.87  4.61
465.7  5301.12  243.95  4.60
467.2  5404.44  250.51  4.64
468.7  5508.00  259.87  4.72
470.2  5586.81  269.06  4.82
471.7  5702.38  278.35  4.88
473.2  5885.72  280.80  4.77
474.6  6027.25  278.76  4.62
476.1  6074.86  280.26  4.61
477.6  6093.70  285.53  4.69
479.1  6122.60  289.71  4.73
480.6  6163.05  289.60  4.70
482.1  6243.66  293.40  4.70
483.6  6332.42  296.55  4.68
485.1  6458.38  302.62  4.69
486.6  6604.00  307.86  4.66
488.0  6753.50  317.96  4.71
489.5  6913.82  325.91  4.71
491.0  7075.65  334.33  4.73
492.5  7238.97  345.06  4.77
494.0  7404.10  353.82  4.78
495.4  7549.58  363.99  4.82
496.9  7695.36  373.41  4.85
498.4  7836.28  384.42  4.91
499.9  7979.51  394.11  4.94
501.4  8103.78  405.42  5.00
502.8  8223.51  417.01  5.07
504.3  8333.10  425.16  5.10
505.8  8444.88  437.38  5.18
507.2  8514.20  447.10  5.25
508.7  8565.01  454.44  5.31
510.2  8590.79  464.85  5.41
511.6  8618.22  472.76  5.49
513.1  8670.26  479.10  5.53
514.6  8732.77  486.89  5.58
516.0  8783.27  496.13  5.65
517.5  8880.96  507.47  5.71
519.0  8994.65  522.81  5.81
520.5  9112.66  536.72  5.89
521.9  9263.01  553.20  5.97
523.4  9434.43  571.22  6.05
524.8  9608.27  591.10  6.15
526.3  9802.81  611.83  6.24
527.8  10000.35  633.35  6.33
529.2  10181.33  652.74  6.41
530.7  10383.39  673.45  6.49
532.1  10567.68  695.03  6.58
533.6  10773.42  714.50  6.63
535.0  10980.59  737.24  6.71
536.5  11186.70  763.14  6.82
538.0  11401.56  787.89  6.91
539.4  11601.83  812.64  7.00
540.9  11838.18  840.68  7.10
542.3  12056.36  859.99  7.13
543.8  12205.88  880.44  7.21
545.2  12241.58  895.04  7.31
546.6  12248.30  908.75  7.42
548.1  12260.70  921.81  7.52
549.5  12261.13  933.63  7.61
551.0  12260.01  945.06  7.71
552.4  12274.54  960.46  7.82
553.9  12279.40  972.45  7.92
555.3  12300.80  985.14  8.01
556.8  12360.66  1001.69  8.10
558.2  12414.09  1019.70  8.21
559.6  12499.51  1041.07  8.33
561.1  12612.44  1064.81  8.44
562.5  12742.28  1088.52  8.54
564.0  12915.37  1118.80  8.66
565.4  13070.62  1147.92  8.78
566.8  13269.64  1183.25  8.92
568.3  13461.39  1217.54  9.04
569.7  13659.35  1255.87  9.19
571.1  13859.91  1292.48  9.33
572.6  14064.03  1329.16  9.45
574.0  14250.23  1368.62  9.60
575.4  14437.41  1407.71  9.75
576.9  14612.77  1443.86  9.88
578.3  14771.90  1481.84  10.03
579.7  14927.19  1519.74  10.18
581.1  15049.34  1555.92  10.34
582.6  15179.87  1594.68  10.51
584.0  15306.40  1631.83  10.66
585.4  15471.50  1671.55  10.80
586.8  15703.41  1712.10  10.90
588.3  15959.97  1754.53  10.99
589.7  16164.72  1792.28  11.09
591.1  16308.26  1825.39  11.19
592.5  16380.50  1851.63  11.30
594.0  16416.90  1876.79  11.43
595.4  16426.30  1896.75  11.55
596.8  16438.21  1918.20  11.67
598.2  16446.40  1933.32  11.76
599.6  16446.15  1949.53  11.85
601.0  16488.64  1973.16  11.97
602.4  16524.83  1990.67  12.05
603.9  16595.00  2015.42  12.14
605.3  16677.56  2040.40  12.23
606.7  16748.10  2064.72  12.33
608.1  16880.08  2099.61  12.44
609.5  17023.96  2138.12  12.56
610.9  17200.20  2181.75  12.68
612.3  17363.60  2225.62  12.82
613.7  17583.26  2275.55  12.94
615.1  17730.09  2318.00  13.07
616.5  17885.32  2362.56  13.21
617.9  18120.27  2422.45  13.37
619.3  18343.55  2483.79  13.54
620.7  18613.68  2557.51  13.74
622.1  18877.69  2570.12  13.61
623.5  19168.37  2540.56  13.25
624.9  19495.88  2521.54  12.93
626.3  19705.80  2509.86  12.74
627.7  19502.63  2493.32  12.78
629.1  19316.59  2515.43  13.02
630.5  19234.56  2573.82  13.38
631.9  19243.16  2646.45  13.75
633.3  19227.78  2717.97  14.14
634.7  19307.14  2789.25  14.45
636.1  19335.07  2844.87  14.71
637.5  19378.14  2902.73  14.98
638.9  19457.31  2974.46  15.29
640.2  19514.53  3038.82  15.57
641.6  19531.98  3097.22  15.86
643.0  19504.65  3139.15  16.09
644.4  19507.28  3177.69  16.29
645.8  19449.04  3194.31  16.42
647.2  19526.59  3231.09  16.55
648.5  19579.91  3265.58  16.68
649.9  19492.88  3279.27  16.82
651.3  19428.45  3310.41  17.04
652.7  19344.30  3318.23  17.15
654.1  19217.52  3249.99  16.91
655.5  19076.42  3154.70  16.54
656.8  18936.77  3073.61  16.23
658.2  19052.33  3037.68  15.94
659.6  19274.42  3024.99  15.69
660.9  19463.87  3016.67  15.50
662.3  19650.11  3005.32  15.29
663.7  19826.10  2991.94  15.09
665.0  19986.79  2978.25  14.90
666.4  20146.14  2974.56  14.76
667.8  20346.56  2984.95  14.67
669.1  20529.76  2994.43  14.59
670.5  20738.52  3016.64  14.55
671.9  20872.26  3042.73  14.58
673.2  21059.41  3092.18  14.68
674.6  21230.21  3153.88  14.86
676.0  21420.32  3237.94  15.12
677.3  21614.12  3333.84  15.42
678.7  21817.38  3449.30  15.81
680.0  22089.50  3591.74  16.26
681.4  22373.47  3752.01  16.77
682.8  22657.86  3927.71  17.33
684.1  22942.53  4121.21  17.96
685.5  23200.94  4318.41  18.61
686.8  23448.72  4512.95  19.25
688.2  23672.40  4700.03  19.85
689.5  23749.65  4855.50  20.44
690.9  23825.77  5012.96  21.04
692.2  23869.28  5165.62  21.64
693.6  23926.69  5316.19  22.22
694.9  23920.11  5438.48  22.74
696.2  23942.14  5555.54  23.20
697.6  23961.85  5664.08  23.64
698.9  23992.32  5778.78  24.09
700.3  24038.01  5901.59  24.55
701.6  24084.68  6017.21  24.98
703.0  24137.54  6128.63  25.39
704.3  24141.49  6207.89  25.71
705.6  24144.66  6295.73  26.08
707.0  24151.61  6373.37  26.39
708.3  24094.31  6425.15  26.67
709.6  24038.25  6476.73  26.94
711.0  23936.43  6509.44  27.19
712.3  23827.16  6538.37  27.44
713.6  23789.01  6593.05  27.71
714.9  23716.29  6634.62  27.97
716.3  23686.39  6678.46  28.20
717.6  23672.15  6732.17  28.44
718.9  23614.96  6759.80  28.63
720.2  23494.56  6761.26  28.78
721.6  23399.74  6775.54  28.96
722.9  23270.63  6789.80  29.18
724.2  23091.17  6793.11  29.42
725.5  22957.02  6809.93  29.66
726.8  22832.78  6810.27  29.83
728.1  22750.67  6824.97  30.00
729.5  22685.44  6840.80  30.16
730.8  22628.18  6867.29  30.35
732.1  22547.20  6892.61  30.57
733.4  22493.78  6918.86  30.76
734.7  22430.29  6935.67  30.92
736.0  22412.65  6971.82  31.11
737.3  22354.35  7003.26  31.33
738.6  22392.88  7062.17  31.54
739.9  22486.41  7155.59  31.82
741.2  22557.99  7220.85  32.01
742.5  22690.46  7327.15  32.29
743.8  22954.18  7471.31  32.55
745.1  23356.68  7666.78  32.82
746.4  23838.13  7863.77  32.99
747.7  24340.83  8055.61  33.10
749.0  24845.90  8227.52  33.11
750.3  25109.11  8312.91  33.11
751.6  25056.94  8307.03  33.15
752.9  24812.33  8261.87  33.30
754.2  24511.78  8214.75  33.51
755.4  24190.11  8167.13  33.76
756.7  24095.29  8200.72  34.03
758.0  24119.44  8278.84  34.32
759.3  24282.67  8399.83  34.59
760.6  24509.10  8555.42  34.91
761.9  24709.31  8696.16  35.19
763.1  24854.26  8790.48  35.37
764.4  25021.13  8904.44  35.59
765.7  25148.50  8998.38  35.78
767.0  25255.87  9085.40  35.97
768.2  25351.20  9167.42  36.16
769.5  25424.49  9238.42  36.34
770.8  25570.26  9332.64  36.50
772.0  25587.81  9391.41  36.70
773.3  25669.17  9473.78  36.91
774.6  25760.75  9557.80  37.10
775.8  25826.13  9616.34  37.23
777.1  25851.30  9674.57  37.42
778.4  25836.83  9696.85  37.53
779.6  25861.37  9757.67  37.73
780.9  25820.00  9798.67  37.95
782.1  25728.02  9811.19  38.13
783.4  25750.40  9853.10  38.26
784.6  25767.74  9913.91  38.47
785.9  25975.04  10068.60  38.76
787.1  26352.59  10274.90  38.99
788.4  26662.70  10385.86  38.95
789.6  26677.46  10321.13  38.69
790.9  26422.83  10196.61  38.59
792.1  26144.60  10110.38  38.67
793.4  25865.12  10053.71  38.87
794.6  25676.57  10011.89  38.99
795.8  25513.36  9992.44  39.17
797.1  25350.08  9961.30  39.29
798.3  25228.50  9967.38  39.51
799.5  25169.97  9978.14  39.64
800.8  25099.23  9979.46  39.76
802.0  25011.42  9977.45  39.89
803.2  24918.76  9968.11  40.00
804.5  24860.18  9963.97  40.08
805.7  24781.04  9954.32  40.17
806.9  24699.71  9951.68  40.29
808.1  24647.73  9968.41  40.44
809.4  24609.13  9990.67  40.60
810.6  24558.63  10005.75  40.74
811.8  24538.32  10038.16  40.91
813.0  24560.28  10080.90  41.05
814.2  24583.06  10124.62  41.19
815.4  24644.79  10164.05  41.24
816.6  24675.27  10193.52  41.31
817.9  24704.84  10205.86  41.31
819.1  24672.89  10184.02  41.28
820.3  24583.02  10155.91  41.31
821.5  24511.70  10140.59  41.37
822.7  24474.49  10145.69  41.45
823.9  24466.74  10159.00  41.52
825.1  24483.13  10163.73  41.51
826.3  24493.16  10178.83  41.56
827.5  24511.03  10200.34  41.62
828.7  24560.16  10204.97  41.55
829.9  24556.61  10221.06  41.62
831.0  24631.50  10258.80  41.65
832.2  24684.15  10293.38  41.70
833.4  24732.69  10322.35  41.74
834.6  24771.09  10363.13  41.84
835.8  24806.25  10397.52  41.91
837.0  24848.21  10457.67  42.09
838.1  24942.61  10519.17  42.17
839.3  24987.97  10560.43  42.26
840.5  25056.73  10613.96  42.36
841.7  25139.84  10691.63  42.53
842.9  25202.72  10766.21  42.72
844.0  25272.39  10813.13  42.79
845.2  25356.92  10884.08  42.92
846.4  25406.55  10925.87  43.00
847.5  25535.27  11009.05  43.11
848.7  25649.51  11066.10  43.14
849.9  25759.43  11113.64  43.14
851.0  25787.85  11121.36  43.13
852.2  25836.49  11143.10  43.13
853.3  25835.02  11140.21  43.12
854.5  25803.13  11141.14  43.18
855.6  25784.28  11164.74  43.30
856.8  25811.14  11208.13  43.42
857.9  25796.36  11220.84  43.50
859.1  25866.40  11279.45  43.61
860.2  25870.46  11306.09  43.70
861.4  25883.89  11328.63  43.77
862.5  25913.95  11355.30  43.82
863.7  25967.63  11397.40  43.89
864.8  25978.23  11418.05  43.95
865.9  25934.02  11423.07  44.05
867.1  25972.57  11442.63  44.06
868.2  25960.64  11460.50  44.15
869.3  25983.57  11477.54  44.17
870.5  25945.69  11463.07  44.18
871.6  25952.82  11479.91  44.23
872.7  25988.86  11527.19  44.35
873.9  26010.48  11539.28  44.36
875.0  25998.57  11528.45  44.34
876.1  25976.68  11533.72  44.40
877.2  25992.15  11544.06  44.41
878.3  25997.76  11545.54  44.41
879.4  26016.59  11554.45  44.41
880.5  26032.32  11561.64  44.41
881.7  26038.68  11548.33  44.35
882.8  26051.76  11555.59  44.36
883.9  26088.59  11549.39  44.27
885.0  26049.66  11512.37  44.19
886.1  26068.54  11492.17  44.08
887.2  25979.14  11430.34  44.00
888.3  25929.87  11377.91  43.88
889.4  25867.81  11338.05  43.83
890.5  25830.84  11317.49  43.81
891.6  25777.28  11285.95  43.78
892.7  25812.52  11282.23  43.71
893.8  25792.32  11292.66  43.78
894.9  25833.34  11300.51  43.74
896.0  25797.95  11279.15  43.72
897.0  25823.30  11283.96  43.70
898.1  25837.83  11276.26  43.64
899.2  25853.12  11260.30  43.55
900.3  25827.20  11226.68  43.47
901.4  25755.93  11194.84  43.47
902.4  25796.28  11200.48  43.42
903.5  25760.57  11169.41  43.36
904.6  25773.48  11161.67  43.31
905.7  25786.56  11157.70  43.27
906.7  25778.44  11134.21  43.19
907.8  25791.16  11130.65  43.16
908.9  25756.23  11092.20  43.07
909.9  25738.83  11074.58  43.03
911.0  25715.27  11046.51  42.96
912.1  25708.69  10996.19  42.77
913.1  25683.06  10956.92  42.66
914.2  25568.28  10906.35  42.66
915.2  25594.38  10878.45  42.50
916.3  25582.28  10849.31  42.41
917.3  25579.53  10806.31  42.25
918.4  25529.08  10738.70  42.06
919.4  25526.52  10678.58  41.83
920.5  25540.93  10633.70  41.63
921.5  25532.64  10603.14  41.53
922.6  25509.72  10535.31  41.30
923.6  25552.64  10485.70  41.04
924.7  25558.13  10441.83  40.86
925.7  25559.01  10378.54  40.61
926.7  25571.07  10311.80  40.33
927.8  25622.74  10237.27  39.95
928.8  25737.00  10206.77  39.66
929.9  25798.01  10147.37  39.33
930.9  25912.02  10122.76  39.07
931.9  26063.45  10107.85  38.78
932.9  26272.00  10099.34  38.44
934.0  26311.65  10016.12  38.07
935.0  26328.00  9949.93  37.79
936.0  26313.67  9861.36  37.48
937.0  26305.79  9770.55  37.14
938.1  26273.03  9679.43  36.84
939.1  26282.27  9601.18  36.53
940.1  26307.38  9526.66  36.21
941.1  26474.98  9479.49  35.81
942.1  26613.43  9441.44  35.48
943.1  26709.35  9377.44  35.11
944.1  26891.46  9342.26  34.74
945.2  26931.87  9242.46  34.32
946.2  27005.05  9147.68  33.87
947.2  27050.94  9056.66  33.48
948.2  27161.01  8972.54  33.03
949.2  27258.97  8883.28  32.59
950.2  27257.00  8781.25  32.22
951.2  27381.90  8677.48  31.69
952.2  27427.92  8578.97  31.28
953.2  27549.11  8486.05  30.80
954.2  27670.16  8400.80  30.36
955.2  27683.23  8309.06  30.01
956.2  27678.04  8216.79  29.69
957.2  27683.31  8149.60  29.44
958.2  27771.67  8082.00  29.10
959.2  27855.45  8049.72  28.90
960.1  27895.78  8011.88  28.72
961.1  27947.74  7984.24  28.57
962.1  27921.09  7957.44  28.50
963.1  28038.72  7945.22  28.34
964.1  28081.62  7931.71  28.25
965.1  28159.91  7935.16  28.18
966.1  28230.04  7921.46  28.06
967.0  28291.66  7934.20  28.04
968.0  28354.15  7926.97  27.96
969.0  28355.00  7930.84  27.97
970.0  28440.42  7934.33  27.90
971.0  28447.07  7933.73  27.89
971.9  28529.94  7949.65  27.86
972.9  28619.85  7918.82  27.67
973.9  28640.46  7911.33  27.62
974.9  28629.25  7894.81  27.58
975.8  28737.28  7892.23  27.46
976.8  28722.61  7883.34  27.45
977.8  28846.97  7883.67  27.33
978.8  28789.28  7890.52  27.41
979.7  28914.30  7901.17  27.33
980.7  28909.16  7929.14  27.43
981.7  29108.19  7967.98  27.37
982.6  29310.11  8065.68  27.52
983.6  29612.62  8107.52  27.38
984.6  29886.86  8223.41  27.52
985.5  30220.02  8397.89  27.79
986.5  30590.42  8552.67  27.96
987.5  31346.01  8707.23  27.78
988.4  31956.65  8863.21  27.74
989.4  32957.10  9129.78  27.70
990.4  33646.09  9381.01  27.88
991.3  34254.92  9509.57  27.76
992.3  35605.12  9820.75  27.58
993.2  35791.00  10097.77  28.21
994.2  37066.33  10187.97  27.49
995.2  37769.29  10276.98  27.21
996.1  38356.88  10574.88  27.57
997.1  37945.80  10444.60  27.53
998.0  38542.50  10323.68  26.79
999.0  38301.25  10575.00  27.61
1000.0  38064.02  10300.41  27.06
1000.9  38955.51  10519.30  27.00
1001.9  38313.61  10460.22  27.30
1002.8  38469.11  10537.19  27.39
1003.8  38840.71  10386.62  26.74
1004.8  39018.78  10161.62  26.04
961.5  34418.44  7960.07  23.13
965.5  34203.70  8017.82  23.44
969.5  33124.73  7905.26  23.87
973.4  31599.68  7678.29  24.30
977.4  30418.99  7442.32  24.47
981.4  29806.10  7384.57  24.78
985.3  29606.90  7447.62  25.16
989.3  29665.19  7642.82  25.76
993.3  29713.32  7874.58  26.50
997.2  29668.74  8056.64  27.16
1001.2  29627.00  8205.99  27.70
1005.2  29568.23  8343.99  28.22
1009.1  29600.49  8524.50  28.80
1013.1  29702.49  8747.10  29.45
1017.1  29789.49  8975.97  30.13
1021.0  29789.99  9178.66  30.81
1025.0  29760.59  9373.96  31.50
1029.0  29636.30  9532.21  32.16
1032.9  29533.53  9688.16  32.80
1036.9  29509.70  9871.47  33.45
1040.9  29556.91  10065.26  34.05
1044.8  29679.34  10290.97  34.67
1048.8  29786.37  10501.86  35.26
1052.7  29868.84  10682.95  35.77
1056.7  29898.31  10810.18  36.16
1060.7  29913.73  10900.44  36.44
1064.6  29918.21  10983.41  36.71
1068.6  29859.11  10987.63  36.80
1072.5  29814.52  10972.59  36.80
1076.5  29798.83  10938.85  36.71
1080.4  29797.49  10877.01  36.50
1084.4  29858.05  10823.76  36.25
1088.3  29928.60  10743.27  35.90
1092.3  29919.24  10600.23  35.43
1096.2  29930.07  10460.76  34.95
1100.2  29956.02  10327.33  34.47
1104.1  29873.92  10146.30  33.96
1108.1  29858.25  9982.39  33.43
1112.0  29809.22  9782.88  32.82
1116.0  29674.06  9542.43  32.16
1119.9  29580.84  9274.83  31.35
1123.9  29636.88  8983.80  30.31
1127.8  29621.76  8574.72  28.95
1131.8  29615.13  8054.34  27.20
1135.7  29658.37  7463.64  25.17
1139.6  29649.41  6840.23  23.07
1143.6  29635.32  6271.21  21.16
1147.5  29635.02  5831.58  19.68
1151.4  29535.85  5491.04  18.59
1155.4  29547.88  5277.67  17.86
1159.3  29582.50  5151.00  17.41
1163.2  29498.44  5049.09  17.12
1167.2  29505.90  4997.30  16.94
1171.1  29517.01  4956.31  16.79
1175.0  29484.53  4919.31  16.68
1179.0  29486.15  4887.17  16.57
1182.9  29537.81  4862.03  16.46
1186.8  29538.86  4833.70  16.36
1190.7  29410.97  4785.22  16.27
1194.7  29255.48  4746.11  16.22
1198.6  29133.72  4726.26  16.22
1202.5  29044.69  4719.32  16.25
1206.4  28972.03  4720.37  16.29
1210.3  28920.11  4732.45  16.36
1214.2  28863.76  4744.39  16.44
1218.2  28763.18  4758.99  16.55
1222.1  28692.28  4784.78  16.68
1226.0  28656.56  4814.27  16.80
1229.9  28600.92  4835.72  16.91
1233.8  28545.33  4857.23  17.02
1237.7  28520.81  4893.37  17.16
1241.6  28465.46  4919.05  17.28
1245.5  28370.21  4932.29  17.39
1249.4  28299.76  4935.76  17.44
1253.3  28232.22  4946.35  17.52
1257.2  28191.00  4963.86  17.61
1261.1  28130.65  4962.06  17.64
1265.0  28057.45  4956.77  17.67
1268.9  27949.80  4928.94  17.63
1272.8  27989.85  4912.45  17.55
1276.7  28109.94  4902.71  17.44
1280.6  28175.48  4864.77  17.27
1284.5  28132.96  4795.45  17.05
1288.4  28112.11  4726.62  16.81
1292.3  28036.25  4633.75  16.53
1296.2  27954.20  4522.43  16.18
1300.1  27848.52  4403.52  15.81
1303.9  27706.57  4262.28  15.38
1307.8  27559.31  4111.99  14.92
1311.7  27397.23  3951.28  14.42
1315.6  27238.78  3786.09  13.90
1319.5  27066.08  3610.51  13.34
1323.3  26913.00  3441.79  12.79
1327.2  26776.06  3282.37  12.26
1331.1  26621.95  3116.46  11.71
1335.0  26429.02  2952.93  11.17
1338.8  26290.11  2813.86  10.70
1342.7  26169.42  2700.33  10.32
1346.5  25929.13  2588.26  9.98
1350.4  25728.90  2490.21  9.68
1354.3  25457.85  2390.24  9.39
1358.1  25158.95  2282.56  9.07
1362.0  24980.59  2187.03  8.75
1365.8  24927.82  2101.57  8.43
1369.7  24996.19  2026.15  8.11
1373.5  24961.93  1935.76  7.75
1377.4  24802.90  1814.62  7.32
1381.2  24660.90  1677.67  6.80
1385.1  24643.85  1544.48  6.27
1389.0  24592.75  1425.74  5.80
1392.8  24461.78  1321.94  5.40
1396.6  24365.22  1227.25  5.04
1400.5  24231.60  1151.29  4.75
1404.3  24125.27  1094.48  4.54
1408.2  24097.32  1052.84  4.37
1412.0  24070.61  1016.33  4.22
1415.8  24101.54  989.81  4.11
1419.6  24084.23  968.89  4.02
1423.5  24070.46  952.99  3.96
1427.3  24053.34  941.43  3.91
1431.1  24042.83  932.33  3.88
1434.9  23983.10  925.28  3.86
1438.8  23944.05  919.83  3.84
1442.6  23927.04  916.28  3.83
1446.4  23856.75  905.87  3.80
1450.2  23800.39  898.52  3.78
1454.0  23730.24  893.76  3.77
1457.8  23714.21  894.81  3.77
1461.6  23699.02  896.38  3.78
1465.4  23623.88  894.10  3.78
1469.2  23507.58  895.59  3.81
1473.0  23416.67  897.14  3.83
1476.8  23385.95  902.85  3.86
1480.7  23341.52  915.40  3.92
1484.4  23269.68  924.16  3.97
1488.2  23205.84  934.80  4.03
1492.0  23119.76  951.29  4.11
1495.8  23050.30  969.91  4.21
1499.6  22974.60  978.45  4.26
1503.4  22886.86  983.84  4.30
1507.2  22817.82  986.27  4.32
1510.9  22736.47  987.97  4.35
1514.7  22640.13  991.34  4.38
1518.5  22563.41  996.59  4.42
1522.3  22469.97  998.93  4.45
1526.0  22400.45  1001.61  4.47
1529.8  22366.84  1011.19  4.52
1533.6  22289.14  1016.55  4.56
1537.3  22206.85  1024.43  4.61
1541.1  22117.21  1037.29  4.69
1544.8  22039.20  1048.00  4.76
1548.6  21965.35  1052.95  4.79
1552.4  21895.60  1058.64  4.83
1556.1  21841.83  1065.22  4.88
1559.9  21787.79  1070.92  4.92
1563.6  21716.01  1076.65  4.96
1567.3  21641.45  1089.04  5.03
1571.1  21503.94  1102.46  5.13
1574.8  21413.78  1113.93  5.20
1578.6  21355.88  1123.15  5.26
1582.3  21274.05  1135.57  5.34
1586.0  21183.04  1138.90  5.38
1589.8  21100.62  1134.83  5.38
1593.5  21000.69  1136.95  5.41
1597.2  20929.52  1137.28  5.43
1600.9  20843.62  1143.03  5.48
1604.7  20745.10  1151.04  5.55
1608.4  20669.95  1160.49  5.61
1612.1  20567.28  1159.85  5.64
1615.8  20477.47  1154.88  5.64
1619.5  20422.34  1164.83  5.70
1623.2  20328.29  1172.40  5.77
1626.9  20221.28  1173.86  5.81
1630.6  20112.62  1175.31  5.84
1634.3  20025.88  1178.37  5.88
1638.0  19934.15  1177.37  5.91
1641.7  19830.91  1173.78  5.92
1645.4  19716.98  1171.46  5.94
1649.1  19602.77  1165.10  5.94
1652.8  19509.95  1155.58  5.92
1656.4  19395.62  1145.87  5.91
1660.1  19295.18  1144.78  5.93
1663.8  19185.10  1138.55  5.93
1667.5  19083.74  1130.11  5.92
1671.1  18996.35  1127.51  5.94
1674.8  18876.30  1115.17  5.91
1678.5  18838.56  1108.52  5.88
1682.1  18849.73  1103.39  5.85
1685.8  18859.30  1101.20  5.84
1689.5  18795.30  1095.65  5.83
1693.1  18706.41  1087.04  5.81
1696.8  18615.25  1079.84  5.80
1700.4  18529.58  1073.49  5.79
1704.0  18456.67  1065.24  5.77
1707.7  18296.86  1048.33  5.73
1711.3  18114.51  1031.54  5.69
1715.0  17992.28  1013.79  5.63
1718.6  17886.14  996.73  5.57
1722.2  17799.94  980.06  5.51
1725.9  17706.59  966.81  5.46
1729.5  17604.49  954.39  5.42
1733.1  17541.49  941.21  5.37
1736.7  17471.92  932.41  5.34
1740.3  17366.15  918.09  5.29
1744.0  17315.89  905.69  5.23
1747.5  17227.16  888.66  5.16
1751.2  17088.52  875.17  5.12
1754.8  16976.43  861.78  5.08
1758.4  16893.02  846.32  5.01
1762.0  16789.89  836.15  4.98
1765.5  16699.11  827.39  4.95
1769.1  16665.60  820.80  4.93
1772.7  16620.17  813.46  4.89
1776.3  16550.18  809.56  4.89
1779.9  16477.44  794.45  4.82
1783.5  16434.96  782.03  4.76
1787.0  16345.96  783.86  4.80
1790.6  16243.66  779.25  4.80
1794.2  16171.99  771.18  4.77
1797.8  16109.35  768.09  4.77
1801.3  16053.66  764.95  4.76
1804.9  15954.75  759.50  4.76
1808.4  15901.90  759.77  4.78
1812.0  15801.30  751.15  4.75
1815.5  15695.88  746.89  4.76
1819.1  15574.16  743.66  4.77
1822.6  15471.85  738.82  4.78
1826.2  15387.58  735.96  4.78
1829.7  15274.18  732.49  4.80
1833.2  15120.13  723.39  4.78
1836.8  14969.50  709.20  4.74
1840.3  14877.77  706.28  4.75
1843.8  14800.45  710.01  4.80
1847.3  14738.02  714.04  4.84
1850.8  14668.42  719.04  4.90
1854.3  14577.15  716.44  4.91
1857.8  14534.00  708.93  4.88
1861.3  14522.25  693.23  4.77
1864.8  14459.04  664.94  4.60
1868.3  14308.06  624.33  4.36
1871.8  14215.68  565.76  3.98
1875.3  14201.46  523.40  3.69
1878.8  14176.42  500.13  3.53
1882.3  14122.90  485.65  3.44
1885.8  14014.10  460.45  3.29
1889.3  13904.45  430.95  3.10
1892.7  13776.82  433.85  3.15
1896.2  13660.15  443.76  3.25
1899.7  13554.20  440.52  3.25
1903.1  13466.38  431.20  3.20
1906.6  13511.57  460.01  3.40
1910.0  13676.29  514.25  3.76
1913.5  13920.50  510.42  3.67
1917.0  14289.98  615.42  4.31
1920.4  14838.23  677.97  4.57
1923.8  14900.33  686.32  4.61
1871.2  12934.73  446.42  3.45
1873.9  13036.34  493.96  3.79
1876.7  13080.35  569.15  4.35
1879.5  13184.92  523.36  3.97
1882.3  12973.16  481.16  3.71
1885.1  12955.86  451.11  3.48
1887.8  13054.47  434.33  3.33
1890.6  12965.86  441.81  3.41
1893.4  12899.33  430.22  3.34
1896.2  12776.85  412.60  3.23
1898.9  12763.16  441.07  3.46
1901.7  12667.81  456.55  3.60
1904.5  12785.93  435.54  3.41
1907.2  12706.25  430.67  3.39
1910.0  12637.10  419.36  3.32
1912.7  12646.53  409.67  3.24
1915.5  12573.30  416.48  3.31
1918.2  12524.17  406.74  3.25
1921.0  12429.58  391.97  3.15
1923.7  12476.24  397.98  3.19
1926.5  12456.75  386.46  3.10
1929.2  12429.04  383.73  3.09
1932.0  12425.12  409.75  3.30
1934.7  12406.61  395.00  3.18
1937.4  12332.23  385.64  3.13
1940.2  12287.19  409.78  3.34
1942.9  12341.39  400.93  3.25
1945.6  12357.84  383.54  3.10
1948.3  12310.10  395.09  3.21
1951.1  12286.82  387.29  3.15
1953.8  12285.00  390.00  3.17
1956.5  12213.61  397.34  3.25
1959.2  12244.05  389.70  3.18
1961.9  12277.60  389.39  3.17
1964.6  12227.25  404.60  3.31
1967.3  12243.43  399.51  3.26
1970.0  12130.08  382.83  3.16
1972.8  12063.78  401.05  3.32
1975.5  12116.40  405.83  3.35
1978.2  12077.12  380.57  3.15
1980.9  11995.23  384.78  3.21
1983.5  11947.43  401.35  3.36
1986.2  11960.10  404.49  3.38
1988.9  11951.37  413.22  3.46
1991.6  11858.95  406.50  3.43
1994.3  11764.18  395.70  3.36
1997.0  11766.88  405.59  3.45
1999.7  11773.83  409.69  3.48
2002.3  11759.81  404.65  3.44
2005.0  11690.77  422.87  3.62
2007.7  11638.67  416.62  3.58
2010.4  11594.16  406.36  3.50
2013.0  11562.08  414.42  3.58
2015.7  11497.38  394.99  3.44
2018.4  11428.93  393.35  3.44
2021.0  11415.50  418.39  3.67
2023.7  11337.76  416.46  3.67
2026.4  11289.20  399.96  3.54
2029.0  11241.04  394.57  3.51
2031.7  11159.63  390.58  3.50
2034.3  11170.90  400.91  3.59
2037.0  11088.29  416.62  3.76
2039.6  11036.71  407.93  3.70
2042.3  11025.52  403.46  3.66
2044.9  10984.38  408.60  3.72
2047.5  10945.11  411.40  3.76
2050.2  10866.80  412.53  3.80
2052.8  10875.20  416.27  3.83
2055.4  10794.82  401.57  3.72
2058.1  10693.20  388.27  3.63
2060.7  10690.88  401.55  3.76
2063.3  10636.71  396.63  3.73
2065.9  10588.79  385.25  3.64
2068.6  10527.38  417.82  3.97
2071.2  10509.93  412.92  3.93
2073.8  10479.76  398.30  3.80
2076.4  10429.57  428.48  4.11
2079.0  10413.86  411.20  3.95
2081.6  10426.21  385.43  3.70
2084.2  10409.13  407.26  3.91
2086.8  10317.76  410.11  3.97
2089.4  10237.53  412.26  4.03
2092.1  10185.83  409.89  4.02
2094.7  10161.53  407.74  4.01
2097.2  10134.83  420.28  4.15
2099.8  10154.06  413.71  4.07
2102.4  10079.62  397.12  3.94
2105.0  9975.00  399.95  4.01
2107.6  9943.53  416.81  4.19
2110.2  9903.21  410.15  4.14
2112.8  9887.09  404.68  4.09
2115.3  9921.47  417.61  4.21
2117.9  9932.41  417.84  4.21
2120.5  9899.34  389.64  3.94
2123.1  9860.18  396.83  4.02
2125.6  9830.42  398.25  4.05
2128.2  9760.43  386.32  3.96
2130.8  9696.38  418.28  4.31
2133.3  9680.00  406.75  4.20
2135.9  9631.02  388.30  4.03
2138.4  9558.99  401.73  4.20
2141.0  9487.88  389.82  4.11
2143.6  9445.83  379.16  4.01
2146.1  9343.90  395.70  4.23
2148.7  9250.50  397.43  4.30
2151.2  9289.87  385.24  4.15
2153.8  9283.27  387.54  4.17
2156.3  9196.68  401.65  4.37
2158.8  9167.15  385.90  4.21
2161.4  9136.89  389.18  4.26
2163.9  9080.87  390.16  4.30
2166.4  9038.53  368.60  4.08
2169.0  9026.70  375.49  4.16
2171.5  8964.61  367.61  4.10
2174.0  8877.40  358.99  4.04
2176.5  8859.37  373.75  4.22
2179.1  8821.17  376.46  4.27
2181.6  8799.54  369.05  4.19
2184.1  8784.16  375.76  4.28
2186.6  8784.20  371.37  4.23
2189.1  8744.04  359.52  4.11
2191.6  8708.93  357.16  4.10
2194.1  8706.09  355.42  4.08
2196.6  8712.45  338.53  3.89
2199.2  8755.72  362.79  4.14
2201.7  8703.45  373.69  4.29
2204.1  8678.72  339.63  3.91
2206.6  8675.98  350.62  4.04
2209.1  8675.22  368.41  4.25
2211.6  8663.97  351.48  4.06
2214.1  8610.78  354.82  4.12
2216.6  8633.61  353.24  4.09
2219.1  8660.20  344.38  3.98
2221.6  8580.23  356.56  4.16
2224.0  8522.97  341.63  4.01
2226.5  8511.79  339.92  3.99
2229.0  8530.74  348.94  4.09
2231.5  8441.32  344.70  4.08
2233.9  8443.24  321.98  3.81
2236.4  8476.56  326.81  3.86
2238.9  8385.50  338.42  4.04
2241.3  8391.31  325.18  3.88
2243.8  8383.54  325.18  3.88
2246.2  8253.42  332.10  4.02
2248.7  8237.84  309.82  3.76
2251.2  8236.26  317.72  3.86
2253.6  8194.56  303.36  3.70
2256.1  8190.72  298.24  3.64
2258.5  8190.43  327.82  4.00
2260.9  8134.04  310.64  3.82
2263.4  8110.40  289.15  3.57
2265.8  8131.85  310.30  3.82
2268.3  8069.96  305.30  3.78
2270.7  8098.88  294.27  3.63
2273.1  8065.01  308.08  3.82
2275.6  8029.44  281.60  3.51
2278.0  8032.57  288.25  3.59
2280.4  8050.71  297.60  3.70
2282.8  7960.15  294.25  3.70
2285.3  7901.09  286.44  3.63
2287.7  7985.73  277.26  3.47
2290.1  7946.20  299.14  3.76
2292.5  7920.79  305.56  3.86
2294.9  7927.04  288.47  3.64
2297.3  7846.72  272.90  3.48
2299.7  7809.80  263.22  3.37
2302.1  7774.17  290.70  3.74
2304.5  7698.88  299.23  3.89
2306.9  7651.84  256.11  3.35
2309.3  7605.49  252.08  3.31
2311.7  7551.70  285.22  3.78
2314.1  7431.64  271.75  3.66
2316.5  7403.26  263.98  3.57
2318.9  7422.16  249.64  3.36
2321.3  7384.55  248.27  3.36
2323.7  7411.63  264.89  3.57
2326.1  7407.14  263.29  3.55
2328.4  7416.57  250.88  3.38
2330.8  7456.07  254.94  3.42
2333.2  7380.05  260.83  3.53
2335.6  7348.45  242.18  3.30
2337.9  7374.28  260.14  3.53
2340.3  7351.28  236.51  3.22
2342.7  7303.86  221.46  3.03
2345.0  7304.27  259.05  3.55
2347.4  7310.00  255.00  3.49
2349.7  7167.86  239.22  3.34
2352.1  7105.77  250.15  3.52
2354.4  7122.34  242.14  3.40
2356.8  7109.55  217.27  3.06
2359.2  7054.67  226.78  3.21
2361.5  7016.24  229.80  3.28
2363.8  7061.80  222.51  3.15
2366.2  7030.44  225.08  3.20
2368.5  6995.40  219.53  3.14
2370.9  6987.35  228.14  3.26
2373.2  6974.33  230.83  3.31
2375.5  6914.20  235.30  3.40
2377.9  6855.73  232.47  3.39
2380.2  6895.41  227.56  3.30
2382.5  6832.77  219.03  3.21
2384.8  6779.04  201.07  2.97
2387.2  6826.21  212.54  3.11
2389.5  6803.92  214.05  3.15
2391.8  6773.50  199.64  2.95
2394.1  6708.07  222.32  3.31
2396.4  6696.25  216.11  3.23
2398.7  6727.77  178.63  2.66
2401.0  6675.75  202.75  3.04
2403.3  6633.36  210.82  3.18
2405.6  6587.80  196.60  2.98
2407.9  6548.07  200.40  3.06
2410.2  6522.35  190.50  2.92
2412.5  6494.37  179.56  2.76
2414.8  6495.78  215.67  3.32
2417.1  6477.89  192.71  2.97
2419.4  6418.72  171.93  2.68
2421.7  6381.59  212.02  3.32
2424.0  6340.00  193.72  3.06
2426.2  6377.20  180.12  2.82
2428.5  6376.43  203.71  3.19
2430.8  6305.65  187.12  2.97
2433.1  6272.91  171.48  2.73
2435.4  6216.05  197.69  3.18
2437.6  6193.67  205.15  3.31
2439.9  6131.58  194.66  3.17
2442.2  6143.40  195.30  3.18
2444.4  6156.85  191.45  3.11
2446.7  6096.96  175.20  2.87
2448.9  6140.77  169.76  2.76
2451.2  6097.08  158.93  2.61
2453.4  6044.75  148.66  2.46
2455.7  6045.18  198.67  3.29
2457.9  5958.48  209.61  3.52
2460.2  5967.72  156.18  2.62
2462.4  5959.20  170.56  2.86
2464.7  5866.75  170.33  2.90
2466.9  5842.20  132.68  2.27
2469.2  5878.87  159.88  2.72
2471.4  5796.90  194.77  3.36
2473.6  5704.14  156.22  2.74
2475.9  5730.24  155.79  2.72
2478.1  5690.78  170.79  3.00
2480.3  5611.10  148.51  2.65
2482.5  5590.00  169.18  3.03
2484.8  5592.32  155.34  2.78
2487.0  5577.22  153.07  2.74
2489.2  5540.68  135.69  2.45
2491.4  5525.52  102.47  1.85
2493.6  5479.00  135.87  2.48
2495.8  5487.41  174.21  3.17
2498.0  5504.43  140.52  2.55
2500.2  5484.68  140.42  2.56
2502.4  5700.96  189.44  3.32
2504.6  5765.46  118.94  2.06
2506.8  5747.58  58.45  1.02
