/*** Spectra Vista SIG Data ***/
name= BB.sig
comm= Averaged Ref/Tar of files: BB1,BB2,BB3
data=
346.4  509.60  107.01  21.00
347.9  549.06  103.75  18.90
349.5  608.40  110.24  18.12
351.1  655.20  105.66  16.13
352.6  708.40  111.74  15.77
354.2  752.68  117.59  15.62
355.7  818.30  120.33  14.71
357.3  873.81  127.83  14.63
358.8  891.23  131.88  14.80
360.4  967.31  136.24  14.08
361.9  1009.93  129.08  12.78
363.5  1059.53  135.04  12.75
365.1  1102.67  142.63  12.93
366.6  1156.59  137.87  11.92
368.2  1218.77  137.66  11.29
369.7  1306.00  137.35  10.52
371.3  1379.56  142.24  10.31
372.8  1457.48  147.41  10.11
374.4  1528.58  150.64  9.85
375.9  1575.56  150.71  9.57
377.4  1632.76  152.65  9.35
379.0  1683.54  150.43  8.94
380.5  1741.87  151.42  8.69
382.1  1805.51  149.92  8.30
383.6  1862.60  149.88  8.05
385.2  1949.75  146.48  7.51
386.7  2036.04  154.51  7.59
388.3  2135.96  159.43  7.46
389.8  2212.47  162.69  7.35
391.3  2314.34  162.65  7.03
392.9  2392.65  170.70  7.13
394.4  2474.90  176.07  7.11
395.9  2552.82  184.00  7.21
397.5  2664.75  199.18  7.47
399.0  2774.82  198.79  7.16
400.6  2852.64  194.33  6.81
402.1  2910.24  189.03  6.50
403.6  2965.71  185.57  6.26
405.1  3036.77  189.05  6.23
406.7  3133.76  194.73  6.21
408.2  3234.33  198.10  6.12
409.7  3330.88  205.33  6.16
411.3  3437.91  217.11  6.32
412.8  3528.93  221.04  6.26
414.3  3634.54  233.49  6.42
415.8  3740.00  241.83  6.47
417.4  3868.37  251.82  6.51
418.9  3954.39  260.59  6.59
420.4  4037.85  263.54  6.53
421.9  4106.74  268.30  6.53
423.5  4196.00  265.88  6.34
425.0  4263.51  274.20  6.43
426.5  4364.50  279.36  6.40
428.0  4488.82  276.82  6.17
429.5  4615.58  287.56  6.23
431.1  4756.23  296.19  6.23
432.6  4917.76  303.88  6.18
434.1  5064.68  312.36  6.17
435.6  5199.35  327.02  6.29
437.1  5333.25  335.01  6.28
438.6  5454.84  342.96  6.29
440.1  5584.70  351.57  6.30
441.6  5717.14  359.38  6.29
443.1  5852.25  368.96  6.30
444.7  5982.11  380.72  6.36
446.2  6104.50  389.85  6.39
447.7  6213.60  401.01  6.45
449.2  6315.84  408.53  6.47
450.7  6414.72  419.47  6.54
452.2  6543.45  422.87  6.46
453.7  6682.65  429.00  6.42
455.2  6842.54  442.88  6.47
456.7  7029.44  451.97  6.43
458.2  7231.16  470.08  6.50
459.7  7428.75  484.87  6.53
461.2  7633.63  500.20  6.55
462.7  7815.14  515.52  6.60
464.2  8000.76  530.94  6.64
465.7  8191.53  546.48  6.67
467.2  8352.58  557.61  6.68
468.7  8552.00  567.47  6.64
470.2  8711.17  575.73  6.61
471.7  8854.00  591.53  6.68
473.2  9050.37  617.44  6.82
474.6  9252.88  633.10  6.84
476.1  9378.88  630.49  6.72
477.6  9464.51  623.40  6.59
479.1  9567.20  619.14  6.47
480.6  9658.16  624.45  6.47
482.1  9797.74  634.03  6.47
483.6  9963.22  649.33  6.52
485.1  10140.49  666.75  6.58
486.6  10356.19  689.53  6.66
488.0  10562.50  715.76  6.78
489.5  10784.97  746.56  6.92
491.0  10998.86  782.60  7.12
492.5  11224.98  821.66  7.32
494.0  11462.99  868.73  7.58
495.4  11663.85  917.07  7.86
496.9  11870.36  967.04  8.15
498.4  12074.30  1024.64  8.49
499.9  12278.41  1083.97  8.83
501.4  12476.75  1143.44  9.16
502.8  12664.51  1209.32  9.55
504.3  12846.60  1277.52  9.94
505.8  13033.73  1346.26  10.33
507.2  13172.68  1415.19  10.74
508.7  13289.99  1479.07  11.13
510.2  13412.81  1548.42  11.54
511.6  13494.72  1613.81  11.96
513.1  13630.43  1690.23  12.40
514.6  13795.53  1768.21  12.82
516.0  13946.28  1840.49  13.20
517.5  14135.83  1928.14  13.64
519.0  14365.19  2012.38  14.01
520.5  14579.60  2096.79  14.38
521.9  14828.55  2189.02  14.76
523.4  15093.49  2281.70  15.12
524.8  15349.14  2376.76  15.48
526.3  15633.70  2472.16  15.81
527.8  15915.89  2567.29  16.13
529.2  16178.21  2654.93  16.41
530.7  16455.24  2745.55  16.68
532.1  16698.15  2829.02  16.94
533.6  16994.07  2916.64  17.16
535.0  17295.55  3005.77  17.38
536.5  17581.25  3090.83  17.58
538.0  17895.84  3173.51  17.73
539.4  18160.64  3256.56  17.93
540.9  18488.86  3366.85  18.21
542.3  18738.28  3472.12  18.53
543.8  18940.29  3559.95  18.80
545.2  19020.35  3600.24  18.93
546.6  19057.19  3626.14  19.03
548.1  19121.11  3656.10  19.12
549.5  19166.91  3687.95  19.24
551.0  19217.70  3719.51  19.35
552.4  19311.21  3755.69  19.45
553.9  19371.38  3788.71  19.56
555.3  19461.20  3823.44  19.65
556.8  19596.88  3871.03  19.75
558.2  19743.75  3914.78  19.83
559.6  19902.71  3967.65  19.94
561.1  20117.50  4028.27  20.02
562.5  20332.52  4095.35  20.14
564.0  20611.34  4176.37  20.26
565.4  20865.50  4246.69  20.35
566.8  21177.73  4332.26  20.46
568.3  21463.05  4409.50  20.54
569.7  21776.78  4489.76  20.62
571.1  22080.65  4562.14  20.66
572.6  22373.82  4637.20  20.73
574.0  22675.95  4709.10  20.77
575.4  22958.44  4777.43  20.81
576.9  23231.09  4838.99  20.83
578.3  23477.03  4901.81  20.88
579.7  23721.74  4962.37  20.92
581.1  23920.49  5013.94  20.96
582.6  24132.47  5068.52  21.00
584.0  24305.80  5123.90  21.08
585.4  24549.94  5205.80  21.20
586.8  24845.17  5310.75  21.38
588.3  25201.80  5436.29  21.57
589.7  25517.70  5534.41  21.69
591.1  25735.55  5605.69  21.78
592.5  25883.00  5649.62  21.83
594.0  25998.42  5680.53  21.85
595.4  26057.54  5702.59  21.88
596.8  26115.38  5734.01  21.96
598.2  26174.55  5762.27  22.01
599.6  26202.06  5794.34  22.11
601.0  26298.70  5843.39  22.22
602.4  26372.18  5886.03  22.32
603.9  26501.77  5941.95  22.42
605.3  26625.41  5987.22  22.49
606.7  26749.80  6029.40  22.54
608.1  26941.18  6082.69  22.58
609.5  27151.69  6140.57  22.62
610.9  27387.74  6205.17  22.66
612.3  27589.20  6263.07  22.70
613.7  27871.80  6335.32  22.73
615.1  28061.64  6376.10  22.72
616.5  28235.16  6416.47  22.73
617.9  28534.12  6492.69  22.75
619.3  28808.15  6574.30  22.82
620.7  29149.14  6677.70  22.91
622.1  29527.66  6731.91  22.80
623.5  29951.83  6786.22  22.66
624.9  30436.35  6878.13  22.60
626.3  30757.12  6972.41  22.67
627.7  30461.43  6964.88  22.86
629.1  30188.34  6985.29  23.14
630.5  30083.03  7032.99  23.38
631.9  30076.12  7073.45  23.52
633.3  30078.24  7075.86  23.52
634.7  30183.54  7072.96  23.43
636.1  30268.81  7020.11  23.19
637.5  30374.19  6938.07  22.84
638.9  30520.15  6840.12  22.41
640.2  30643.60  6693.44  21.84
641.6  30733.56  6502.08  21.16
643.0  30777.50  6301.66  20.47
644.4  30869.16  6139.98  19.89
645.8  30855.38  6002.47  19.45
647.2  31023.20  5932.61  19.12
648.5  31185.15  5888.63  18.88
649.9  31117.13  5832.19  18.74
651.3  31099.80  5805.16  18.67
652.7  31059.00  5777.45  18.60
654.1  30961.56  5659.64  18.28
655.5  30829.51  5517.56  17.90
656.8  30685.81  5383.63  17.54
658.2  30861.69  5310.48  17.21
659.6  31181.89  5266.87  16.89
660.9  31452.29  5205.40  16.55
662.3  31767.46  5135.18  16.16
663.7  32102.70  5051.76  15.74
665.0  32334.98  4964.26  15.35
666.4  32575.38  4890.61  15.01
667.8  32873.84  4834.05  14.70
669.1  33084.01  4785.98  14.47
670.5  33327.47  4761.75  14.29
671.9  33513.12  4742.73  14.15
673.2  33742.50  4764.03  14.12
674.6  33950.66  4801.03  14.14
676.0  34219.05  4869.82  14.23
677.3  34494.18  4973.81  14.42
678.7  34767.13  5115.44  14.71
680.0  35103.31  5326.48  15.17
681.4  35420.13  5607.17  15.83
682.8  35763.00  5967.33  16.69
684.1  36073.44  6413.32  17.78
685.5  36318.59  6949.31  19.13
686.8  36607.26  7576.63  20.70
688.2  36844.31  8264.92  22.43
689.5  36898.97  8980.21  24.34
690.9  36950.15  9719.47  26.30
692.2  37008.15  10477.95  28.31
693.6  37024.93  11243.11  30.37
694.9  37005.38  11957.02  32.31
696.2  37027.13  12669.09  34.22
697.6  37047.86  13344.65  36.02
698.9  37049.76  14004.67  37.80
700.3  37075.62  14632.31  39.47
701.6  37124.24  15226.97  41.02
703.0  37178.40  15779.46  42.44
704.3  37172.20  16252.34  43.72
705.6  37157.22  16690.52  44.92
707.0  37168.46  17101.85  46.01
708.3  37076.04  17433.21  47.02
709.6  36967.81  17734.34  47.97
711.0  36867.73  17985.62  48.78
712.3  36770.31  18218.85  49.55
713.6  36755.88  18465.55  50.24
714.9  36684.64  18687.25  50.94
716.3  36701.44  18930.20  51.58
717.6  36734.04  19179.72  52.21
718.9  36680.73  19350.02  52.75
720.2  36496.25  19437.58  53.26
721.6  36394.28  19542.24  53.70
722.9  36240.12  19617.46  54.13
724.2  36067.30  19644.38  54.47
725.5  35963.70  19694.25  54.76
726.8  35833.96  19707.97  55.00
728.1  35810.80  19738.04  55.12
729.5  35779.10  19767.17  55.25
730.8  35779.13  19803.44  55.35
732.1  35704.25  19824.91  55.53
733.4  35690.92  19856.15  55.63
734.7  35685.89  19864.87  55.67
736.0  35729.66  19911.64  55.73
737.3  35717.44  19925.62  55.79
738.6  35830.21  20018.99  55.87
739.9  36014.88  20166.83  56.00
741.2  36161.58  20259.88  56.03
742.5  36363.94  20424.53  56.17
743.8  36737.66  20687.98  56.31
745.1  37309.08  21064.10  56.46
746.4  37926.98  21496.42  56.68
747.7  38536.99  21954.18  56.97
749.0  39118.92  22424.75  57.32
750.3  39493.02  22722.04  57.53
751.6  39440.80  22754.34  57.69
752.9  39084.79  22600.06  57.82
754.2  38731.25  22402.21  57.84
755.4  38386.91  22149.38  57.70
756.7  38244.09  22070.40  57.71
758.0  38261.36  22091.73  57.74
759.3  38489.95  22258.93  57.83
760.6  38786.44  22492.42  57.99
761.9  39062.28  22705.79  58.13
763.1  39197.21  22832.09  58.25
764.4  39371.54  22978.15  58.36
765.7  39490.75  23099.05  58.49
767.0  39577.16  23195.22  58.61
768.2  39644.64  23283.23  58.73
769.5  39697.68  23360.66  58.85
770.8  39836.32  23483.66  58.95
772.0  39856.44  23530.06  59.04
773.3  39898.95  23622.63  59.21
774.6  39978.84  23711.62  59.31
775.8  40054.79  23788.19  59.39
777.1  40085.96  23842.44  59.48
778.4  40059.57  23819.67  59.46
779.6  39999.54  23843.05  59.61
780.9  39948.00  23836.80  59.67
782.1  39837.20  23781.23  59.70
783.4  39802.88  23795.20  59.78
784.6  39851.08  23834.18  59.81
785.9  40095.40  24024.83  59.92
787.1  40531.58  24357.55  60.10
788.4  40834.19  24641.11  60.34
789.6  40796.10  24669.62  60.47
790.9  40479.11  24514.42  60.56
792.1  40128.24  24288.09  60.53
793.4  39739.41  24066.02  60.56
794.6  39507.48  23924.29  60.56
795.8  39314.07  23813.70  60.57
797.1  39097.95  23691.79  60.60
798.3  38940.83  23608.01  60.63
799.5  38821.14  23561.02  60.69
800.8  38733.05  23503.65  60.68
802.0  38591.76  23455.48  60.78
803.2  38469.72  23395.22  60.81
804.5  38377.94  23375.30  60.91
805.7  38264.87  23337.31  60.99
806.9  38181.95  23301.64  61.03
808.1  38074.65  23277.25  61.14
809.4  38033.33  23275.86  61.20
810.6  37951.55  23242.01  61.24
811.8  37942.61  23254.52  61.29
813.0  37965.80  23270.95  61.29
814.2  37975.49  23304.17  61.37
815.4  38039.93  23371.30  61.44
816.6  38032.65  23408.62  61.55
817.9  38050.16  23459.60  61.65
819.1  37997.24  23443.23  61.70
820.3  37865.18  23377.97  61.74
821.5  37787.61  23339.42  61.76
822.7  37714.41  23307.55  61.80
823.9  37704.87  23304.97  61.81
825.1  37688.07  23292.75  61.80
826.3  37716.38  23284.55  61.74
827.5  37726.06  23280.17  61.71
828.7  37779.60  23276.97  61.61
829.9  37796.29  23280.12  61.59
831.0  37849.02  23319.32  61.61
832.2  37913.75  23355.95  61.60
833.4  37950.44  23386.26  61.62
834.6  37978.13  23427.50  61.69
835.8  38031.53  23470.02  61.71
837.0  38073.26  23539.69  61.83
838.1  38178.69  23638.83  61.92
839.3  38239.24  23682.49  61.93
840.5  38296.24  23738.94  61.99
841.7  38381.58  23856.45  62.16
842.9  38485.06  23991.91  62.34
844.0  38543.94  24050.82  62.40
845.2  38626.85  24155.41  62.54
846.4  38724.98  24218.51  62.54
847.5  38888.12  24357.87  62.64
848.7  39002.30  24479.19  62.76
849.9  39141.74  24591.22  62.83
851.0  39173.78  24641.99  62.90
852.2  39245.07  24692.06  62.92
853.3  39202.67  24700.60  63.01
854.5  39188.19  24718.40  63.08
855.6  39170.88  24737.07  63.15
856.8  39193.80  24771.89  63.20
857.9  39192.81  24783.07  63.23
859.1  39326.60  24845.47  63.18
860.2  39300.24  24847.03  63.22
861.4  39344.78  24884.19  63.25
862.5  39384.29  24901.41  63.23
863.7  39467.66  24940.03  63.19
864.8  39454.45  24945.04  63.22
865.9  39398.65  24929.32  63.27
867.1  39448.45  24936.77  63.21
868.2  39441.53  24949.28  63.26
869.3  39465.67  24954.95  63.23
870.5  39438.89  24904.53  63.15
871.6  39473.54  24917.90  63.13
872.7  39541.37  24973.37  63.16
873.9  39548.50  24959.89  63.11
875.0  39546.05  24937.08  63.06
876.1  39583.15  24915.02  62.94
877.2  39616.79  24917.27  62.90
878.3  39601.98  24873.63  62.81
879.4  39662.11  24893.67  62.76
880.5  39702.60  24890.78  62.69
881.7  39698.10  24840.75  62.57
882.8  39775.46  24846.81  62.47
883.9  39785.32  24854.37  62.47
885.0  39766.55  24776.75  62.31
886.1  39735.85  24760.72  62.31
887.2  39664.66  24639.92  62.12
888.3  39567.00  24565.71  62.09
889.4  39535.02  24483.40  61.93
890.5  39459.91  24419.16  61.88
891.6  39428.33  24345.11  61.75
892.7  39429.01  24301.59  61.63
893.8  39492.50  24307.22  61.55
894.9  39505.51  24279.71  61.46
896.0  39527.49  24225.54  61.29
897.0  39487.40  24198.38  61.28
898.1  39490.45  24177.22  61.22
899.2  39536.22  24147.64  61.08
900.3  39503.73  24074.08  60.94
901.4  39454.09  24001.16  60.83
902.4  39461.49  23990.04  60.79
903.5  39418.10  23937.98  60.73
904.6  39431.18  23912.67  60.64
905.7  39454.64  23867.88  60.49
906.7  39397.52  23825.43  60.47
907.8  39514.80  23808.96  60.25
908.9  39443.33  23732.73  60.17
909.9  39411.21  23667.56  60.05
911.0  39357.50  23592.27  59.94
912.1  39280.99  23493.85  59.81
913.1  39233.48  23404.40  59.65
914.2  39173.92  23301.83  59.48
915.2  39170.79  23252.72  59.36
916.3  39094.50  23184.01  59.30
917.3  39076.47  23117.22  59.16
918.4  39031.30  22990.07  58.90
919.4  39022.48  22873.10  58.62
920.5  39026.74  22795.55  58.41
921.5  39018.63  22697.77  58.17
922.6  38959.72  22579.57  57.96
923.6  39026.05  22488.31  57.62
924.7  39022.50  22376.48  57.34
925.7  39030.84  22253.59  57.02
926.7  39009.32  22156.47  56.80
927.8  39032.57  22045.31  56.48
928.8  39142.62  21976.41  56.14
929.9  39330.10  21909.09  55.71
930.9  39447.46  21843.20  55.37
931.9  39602.61  21835.64  55.14
932.9  39864.58  21803.96  54.70
934.0  39909.81  21686.75  54.34
935.0  39942.68  21565.91  53.99
936.0  39929.50  21393.65  53.58
937.0  39883.94  21236.54  53.25
938.1  39848.52  21056.65  52.84
939.1  39753.89  20941.70  52.68
940.1  39867.76  20800.68  52.17
941.1  39995.43  20776.46  51.95
942.1  40229.45  20724.19  51.51
943.1  40393.76  20630.20  51.07
944.1  40552.56  20567.72  50.72
945.2  40570.32  20407.55  50.30
946.2  40685.67  20268.96  49.82
947.2  40740.25  20113.33  49.37
948.2  40874.09  20010.08  48.96
949.2  40954.06  19854.09  48.48
950.2  41026.00  19674.68  47.96
951.2  41012.16  19532.19  47.63
952.2  41170.94  19350.63  47.00
953.2  41257.13  19240.51  46.64
954.2  41395.95  19105.05  46.15
955.2  41401.94  18947.09  45.76
956.2  41391.82  18796.43  45.41
957.2  41524.97  18692.89  45.02
958.2  41486.28  18606.86  44.85
959.2  41625.00  18542.55  44.55
960.1  41647.94  18466.70  44.34
961.1  41725.78  18465.88  44.26
962.1  41752.50  18388.44  44.04
963.1  41720.60  18372.63  44.04
964.1  41837.60  18392.36  43.96
965.1  41932.95  18398.57  43.88
966.1  41961.44  18370.18  43.78
967.0  42058.17  18407.95  43.77
968.0  42094.69  18383.08  43.67
969.0  42115.20  18431.11  43.76
970.0  42092.26  18432.01  43.79
971.0  42266.18  18464.96  43.69
971.9  42275.33  18476.76  43.71
972.9  42388.85  18522.59  43.70
973.9  42492.13  18467.17  43.46
974.9  42580.28  18504.42  43.46
975.8  42630.52  18511.07  43.42
976.8  42806.43  18482.46  43.18
977.8  42848.34  18555.93  43.31
978.8  42868.95  18582.22  43.35
979.7  43050.58  18640.58  43.30
980.7  43264.32  18718.71  43.27
981.7  43347.07  18822.86  43.42
982.6  43545.07  19021.56  43.68
983.6  44003.55  19159.32  43.54
984.6  44377.46  19389.23  43.69
985.5  44900.28  19734.12  43.95
986.5  45688.01  20135.40  44.07
987.5  46285.78  20487.95  44.26
988.4  47161.40  20962.99  44.45
989.4  47812.76  21530.31  45.03
990.4  48753.98  22060.93  45.25
991.3  50274.64  22802.53  45.36
992.3  50864.45  23241.14  45.69
993.2  51610.85  23755.95  46.03
994.2  53891.66  24356.67  45.20
995.2  55394.96  24918.40  44.98
996.1  55625.12  25713.88  46.23
997.1  56348.70  25318.91  44.93
998.0  54473.40  25626.48  47.04
999.0  55283.87  25678.70  46.45
1000.0  55127.21  25901.04  46.98
1000.9  55875.58  25970.34  46.48
1001.9  56355.47  25812.69  45.80
1002.8  54776.67  25729.70  46.97
1003.8  57170.04  25981.09  45.45
1004.8  54763.20  25617.01  46.78
961.5  49984.08  19529.56  39.07
965.5  48959.90  19248.46  39.31
969.5  47367.08  18882.39  39.86
973.4  45664.01  18421.87  40.34
977.4  44063.24  18044.66  40.95
981.4  43484.76  17957.63  41.30
985.3  43466.28  17989.66  41.39
989.3  43739.41  18168.12  41.54
993.3  44088.36  18374.91  41.68
997.2  44246.85  18517.34  41.85
1001.2  44240.69  18717.83  42.31
1005.2  44147.66  18983.63  43.00
1009.1  44170.72  19334.54  43.77
1013.1  44298.35  19745.57  44.57
1017.1  44409.64  20150.64  45.37
1021.0  44418.65  20499.19  46.15
1025.0  44431.92  20846.71  46.92
1029.0  44310.95  21127.53  47.68
1032.9  44196.36  21408.83  48.44
1036.9  44214.81  21763.64  49.22
1040.9  44317.48  22151.07  49.98
1044.8  44471.57  22561.23  50.73
1048.8  44586.22  22925.94  51.42
1052.7  44660.98  23232.39  52.02
1056.7  44664.90  23460.26  52.53
1060.7  44652.74  23631.14  52.92
1064.6  44643.90  23763.24  53.23
1068.6  44545.19  23792.63  53.41
1072.5  44448.63  23770.72  53.48
1076.5  44390.31  23725.27  53.45
1080.4  44363.13  23647.36  53.30
1084.4  44428.99  23567.29  53.04
1088.3  44526.89  23448.41  52.66
1092.3  44515.11  23232.42  52.19
1096.2  44485.25  22986.75  51.67
1100.2  44489.30  22757.64  51.15
1104.1  44387.15  22467.87  50.62
1108.1  44344.78  22181.15  50.02
1112.0  44255.25  21847.28  49.37
1116.0  44078.91  21436.12  48.63
1119.9  43920.46  20968.22  47.74
1123.9  43980.05  20495.94  46.60
1127.8  43933.44  19820.80  45.12
1131.8  43891.20  18943.32  43.16
1135.7  43904.71  17938.29  40.86
1139.6  43873.24  16872.48  38.46
1143.6  43814.30  15872.07  36.23
1147.5  43764.96  15042.96  34.37
1151.4  43600.54  14390.02  33.00
1155.4  43567.43  13987.73  32.11
1159.3  43548.37  13735.60  31.54
1163.2  43379.84  13527.59  31.18
1167.2  43333.14  13418.96  30.97
1171.1  43320.14  13345.01  30.81
1175.0  43247.45  13259.63  30.66
1179.0  43203.54  13190.96  30.53
1182.9  43281.26  13157.32  30.40
1186.8  43262.79  13094.31  30.27
1190.7  43059.97  12980.65  30.15
1194.7  42822.73  12877.65  30.07
1198.6  42602.18  12807.80  30.06
1202.5  42456.57  12775.19  30.09
1206.4  42335.53  12782.49  30.19
1210.3  42230.32  12801.82  30.31
1214.2  42126.94  12829.84  30.46
1218.2  41984.08  12866.66  30.65
1222.1  41854.50  12920.97  30.87
1226.0  41760.57  12979.27  31.08
1229.9  41673.90  13033.76  31.28
1233.8  41576.55  13080.28  31.46
1237.7  41528.30  13128.87  31.61
1241.6  41457.25  13166.60  31.76
1245.5  41309.15  13179.62  31.90
1249.4  41175.26  13193.98  32.04
1253.3  41058.30  13204.13  32.16
1257.2  40978.33  13217.01  32.25
1261.1  40873.57  13208.51  32.32
1265.0  40757.89  13175.55  32.33
1268.9  40587.74  13102.72  32.28
1272.8  40626.75  13082.45  32.20
1276.7  40780.33  13081.17  32.08
1280.6  40842.56  13025.55  31.89
1284.5  40748.73  12901.99  31.66
1288.4  40697.88  12766.60  31.37
1292.3  40562.50  12577.58  31.01
1296.2  40411.46  12358.65  30.58
1300.1  40239.63  12103.67  30.08
1303.9  40009.73  11801.88  29.50
1307.8  39785.54  11482.39  28.86
1311.7  39554.21  11140.44  28.16
1315.6  39326.35  10787.31  27.43
1319.5  39086.11  10420.08  26.66
1323.3  38870.69  10046.61  25.85
1327.2  38681.53  9678.92  25.02
1331.1  38474.56  9309.76  24.20
1335.0  38203.08  8943.11  23.41
1338.8  38009.09  8615.91  22.67
1342.7  37876.27  8303.76  21.92
1346.5  37598.34  7956.76  21.16
1350.4  37400.07  7641.75  20.43
1354.3  37094.65  7325.02  19.75
1358.1  36731.71  7020.34  19.11
1362.0  36487.36  6777.68  18.58
1365.8  36370.47  6575.54  18.08
1369.7  36432.94  6374.74  17.50
1373.5  36366.82  6083.45  16.73
1377.4  36166.21  5690.18  15.73
1381.2  35990.96  5251.00  14.59
1385.1  35936.27  4844.76  13.48
1389.0  35813.45  4442.06  12.40
1392.8  35598.92  4048.34  11.37
1396.6  35460.61  3711.00  10.47
1400.5  35253.63  3423.23  9.71
1404.3  35072.57  3204.11  9.14
1408.2  35016.72  3041.43  8.69
1412.0  34945.02  2916.11  8.34
1415.8  34962.39  2828.60  8.09
1419.6  34891.95  2761.50  7.91
1423.5  34842.23  2708.25  7.77
1427.3  34796.45  2669.22  7.67
1431.1  34758.75  2645.85  7.61
1434.9  34669.05  2622.79  7.57
1438.8  34606.94  2608.23  7.54
1442.6  34573.84  2603.42  7.53
1446.4  34441.31  2592.36  7.53
1450.2  34332.12  2580.66  7.52
1454.0  34220.52  2572.60  7.52
1457.8  34188.19  2577.58  7.54
1461.6  34155.00  2586.67  7.57
1465.4  34045.70  2595.02  7.62
1469.2  33870.20  2606.39  7.70
1473.0  33726.92  2630.70  7.80
1476.8  33664.28  2670.58  7.93
1480.7  33601.58  2718.85  8.09
1484.4  33488.64  2769.44  8.27
1488.2  33386.04  2829.48  8.48
1492.0  33257.25  2900.11  8.72
1495.8  33142.20  2960.54  8.93
1499.6  33034.11  3008.28  9.11
1503.4  32933.47  3036.94  9.22
1507.2  32852.74  3053.81  9.30
1510.9  32722.34  3076.36  9.40
1514.7  32573.11  3103.32  9.53
1518.5  32453.90  3127.98  9.64
1522.3  32317.90  3150.77  9.75
1526.0  32200.64  3188.95  9.90
1529.8  32127.61  3245.64  10.10
1533.6  32011.66  3295.81  10.30
1537.3  31894.88  3338.19  10.47
1541.1  31782.08  3389.03  10.66
1544.8  31651.20  3449.60  10.90
1548.6  31528.46  3502.63  11.11
1552.4  31450.00  3552.99  11.30
1556.1  31366.15  3594.11  11.46
1559.9  31270.43  3624.52  11.59
1563.6  31150.17  3661.54  11.75
1567.3  31046.10  3717.25  11.97
1571.1  30855.35  3761.90  12.19
1574.8  30723.08  3811.24  12.41
1578.6  30633.26  3858.21  12.59
1582.3  30519.48  3888.49  12.74
1586.0  30400.45  3907.88  12.85
1589.8  30269.89  3926.59  12.97
1593.5  30123.48  3948.09  13.11
1597.2  29998.09  3967.25  13.23
1600.9  29883.71  3981.77  13.32
1604.7  29753.95  4000.19  13.44
1608.4  29639.51  4026.84  13.59
1612.1  29489.62  4042.65  13.71
1615.8  29365.23  4058.92  13.82
1619.5  29298.37  4090.57  13.96
1623.2  29161.12  4105.41  14.08
1626.9  29003.45  4106.90  14.16
1630.6  28846.40  4114.81  14.26
1634.3  28721.00  4127.53  14.37
1638.0  28599.28  4130.04  14.44
1641.7  28456.49  4124.23  14.49
1645.4  28299.47  4116.08  14.54
1649.1  28138.66  4101.67  14.58
1652.8  28008.70  4091.11  14.61
1656.4  27859.80  4074.30  14.62
1660.1  27720.43  4060.28  14.65
1663.8  27551.22  4044.96  14.68
1667.5  27406.07  4024.50  14.68
1671.1  27282.14  4003.13  14.67
1674.8  27100.13  3970.77  14.65
1678.5  27060.12  3951.09  14.60
1682.1  27085.37  3936.00  14.53
1685.8  27087.74  3918.53  14.47
1689.5  26985.46  3888.71  14.41
1693.1  26859.21  3852.83  14.34
1696.8  26718.75  3811.88  14.27
1700.4  26575.97  3765.15  14.17
1704.0  26457.91  3717.97  14.05
1707.7  26210.69  3652.84  13.94
1711.3  25940.59  3579.00  13.80
1715.0  25755.85  3513.18  13.64
1718.6  25603.66  3456.63  13.50
1722.2  25471.82  3404.91  13.37
1725.9  25346.15  3355.68  13.24
1729.5  25225.17  3315.92  13.15
1733.1  25122.33  3283.43  13.07
1736.7  25028.77  3251.44  12.99
1740.3  24869.68  3210.10  12.91
1744.0  24796.20  3171.51  12.79
1747.5  24670.34  3122.65  12.66
1751.2  24460.97  3060.31  12.51
1754.8  24300.77  3005.10  12.37
1758.4  24168.99  2964.11  12.26
1762.0  24004.67  2917.77  12.15
1765.5  23878.06  2881.13  12.07
1769.1  23824.80  2862.40  12.01
1772.7  23745.17  2838.22  11.95
1776.3  23631.64  2807.89  11.88
1779.9  23517.13  2778.12  11.81
1783.5  23453.36  2754.45  11.74
1787.0  23338.16  2726.41  11.68
1790.6  23194.11  2704.35  11.66
1794.2  23099.94  2689.42  11.64
1797.8  23019.59  2670.35  11.60
1801.3  22943.45  2657.44  11.58
1804.9  22821.75  2641.63  11.58
1808.4  22758.56  2625.41  11.54
1812.0  22651.25  2602.78  11.49
1815.5  22537.46  2582.62  11.46
1819.1  22377.91  2562.54  11.45
1822.6  22230.86  2538.72  11.42
1826.2  22108.08  2512.24  11.36
1829.7  21962.63  2482.65  11.30
1833.2  21769.52  2445.93  11.24
1836.8  21568.82  2414.23  11.19
1840.3  21408.35  2398.05  11.20
1843.8  21283.15  2393.00  11.24
1847.3  21175.36  2393.98  11.31
1850.8  21026.88  2386.95  11.35
1854.3  20829.70  2362.88  11.34
1857.8  20716.80  2320.93  11.20
1861.3  20743.52  2242.11  10.81
1864.8  20771.48  2128.69  10.25
1868.3  20668.83  1988.05  9.62
1871.8  20505.60  1840.64  8.98
1875.3  20412.67  1732.64  8.49
1878.8  20386.82  1649.92  8.09
1882.3  20318.80  1563.99  7.70
1885.8  20165.84  1485.73  7.37
1889.3  19976.70  1409.63  7.06
1892.7  19815.25  1363.52  6.88
1896.2  19650.94  1337.72  6.81
1899.7  19441.16  1347.05  6.93
1903.1  19313.45  1388.46  7.19
1906.6  19304.54  1476.32  7.65
1910.0  19451.18  1598.35  8.22
1913.5  19794.95  1763.27  8.91
1917.0  20308.75  2092.42  10.30
1920.4  20662.58  2342.07  11.33
1923.8  20806.27  2474.36  11.89
1871.2  18887.00  1224.79  6.48
1873.9  18953.16  1270.71  6.70
1876.7  18991.47  1228.16  6.47
1879.5  19143.67  1087.71  5.68
1882.3  18900.39  1061.55  5.62
1885.1  18757.12  1031.53  5.50
1887.8  18909.61  953.86  5.04
1890.6  18719.80  964.19  5.15
1893.4  18700.00  931.33  4.98
1896.2  18690.78  843.54  4.51
1898.9  18634.09  845.74  4.54
1901.7  18493.24  832.77  4.50
1904.5  18663.12  809.37  4.34
1907.2  18605.75  805.92  4.33
1910.0  18464.96  795.49  4.31
1912.7  18451.36  777.98  4.22
1915.5  18338.72  790.30  4.31
1918.2  18231.61  819.44  4.49
1921.0  18078.76  785.09  4.34
1923.7  18082.37  769.28  4.25
1926.5  18028.91  780.51  4.33
1929.2  17989.40  782.42  4.35
1932.0  17961.44  787.89  4.39
1934.7  17922.05  786.88  4.39
1937.4  17800.47  773.35  4.34
1940.2  17730.06  805.21  4.54
1942.9  17801.07  808.96  4.54
1945.6  17808.94  792.25  4.45
1948.3  17731.12  799.21  4.51
1951.1  17698.80  785.61  4.44
1953.8  17700.00  800.00  4.52
1956.5  17568.67  815.64  4.64
1959.2  17632.03  810.29  4.60
1961.9  17647.56  810.56  4.59
1964.6  17543.58  824.08  4.70
1967.3  17598.27  838.58  4.77
1970.0  17419.60  822.88  4.72
1972.8  17335.24  819.74  4.73
1975.5  17419.52  846.78  4.86
1978.2  17336.04  846.80  4.88
1980.9  17221.82  828.83  4.81
1983.5  17185.34  816.27  4.75
1986.2  17183.55  833.23  4.85
1988.9  17157.36  856.51  4.99
1991.6  17017.92  858.38  5.04
1994.3  16893.86  849.17  5.03
1997.0  16913.63  849.62  5.02
1999.7  16876.79  864.37  5.12
2002.3  16857.27  864.92  5.13
2005.0  16785.35  867.79  5.17
2007.7  16706.93  873.38  5.23
2010.4  16656.07  869.83  5.22
2013.0  16600.58  864.88  5.21
2015.7  16495.88  879.02  5.33
2018.4  16401.61  881.26  5.37
2021.0  16371.00  868.89  5.31
2023.7  16264.64  875.32  5.38
2026.4  16195.83  879.74  5.43
2029.0  16138.97  897.86  5.56
2031.7  16029.65  877.86  5.48
2034.3  16012.75  872.23  5.45
2037.0  15932.90  905.49  5.68
2039.6  15864.39  892.76  5.63
2042.3  15822.15  868.71  5.49
2044.9  15747.27  882.64  5.61
2047.5  15719.22  894.80  5.69
2050.2  15638.00  892.27  5.71
2052.8  15596.00  902.53  5.79
2055.4  15487.61  888.13  5.73
2058.1  15363.60  886.67  5.77
2060.7  15311.01  900.92  5.88
2063.3  15243.07  885.23  5.81
2065.9  15200.63  889.61  5.85
2068.6  15142.00  912.88  6.03
2071.2  15102.27  909.54  6.02
2073.8  15013.06  900.13  6.00
2076.4  14939.89  915.91  6.13
2079.0  14937.96  905.76  6.06
2081.6  14955.68  888.07  5.94
2084.2  14929.44  909.52  6.09
2086.8  14795.01  920.15  6.22
2089.4  14708.12  907.73  6.17
2092.1  14645.50  905.72  6.18
2094.7  14574.18  908.71  6.24
2097.2  14543.50  896.28  6.16
2099.8  14569.24  916.63  6.29
2102.4  14455.51  916.50  6.34
2105.0  14315.55  903.45  6.31
2107.6  14281.54  922.86  6.46
2110.2  14245.28  912.18  6.40
2112.8  14225.04  904.81  6.36
2115.3  14222.61  920.85  6.47
2117.9  14223.97  931.43  6.55
2120.5  14225.20  926.00  6.51
2123.1  14136.53  932.10  6.59
2125.6  14079.43  928.28  6.59
2128.2  14012.88  920.93  6.57
2130.8  13940.55  929.18  6.67
2133.3  13889.33  939.64  6.77
2135.9  13802.30  925.64  6.71
2138.4  13704.95  924.27  6.74
2141.0  13601.55  947.12  6.96
2143.6  13585.34  933.25  6.87
2146.1  13439.94  920.68  6.85
2148.7  13282.54  911.35  6.86
2151.2  13302.67  896.62  6.74
2153.8  13324.47  925.19  6.94
2156.3  13227.98  939.16  7.10
2158.8  13160.05  918.49  6.98
2161.4  13128.93  907.10  6.91
2163.9  13034.58  910.05  6.98
2166.4  12973.85  912.63  7.03
2169.0  12959.07  913.61  7.05
2171.5  12876.28  906.71  7.04
2174.0  12786.55  891.51  6.97
2176.5  12767.30  898.99  7.04
2179.1  12718.27  904.51  7.11
2181.6  12644.21  894.25  7.07
2184.1  12612.60  897.31  7.11
2186.6  12631.79  901.75  7.14
2189.1  12551.10  897.73  7.15
2191.6  12501.53  914.67  7.32
2194.1  12512.72  905.71  7.24
2196.6  12513.32  888.79  7.10
2199.2  12564.98  910.45  7.25
2201.7  12503.60  916.91  7.33
2204.1  12450.01  893.04  7.17
2206.6  12458.20  896.44  7.20
2209.1  12429.94  922.28  7.42
2211.6  12413.54  914.87  7.37
2214.1  12385.83  908.60  7.34
2216.6  12340.79  883.75  7.16
2219.1  12355.98  878.68  7.11
2221.6  12303.15  908.52  7.38
2224.0  12230.10  897.89  7.34
2226.5  12198.83  873.89  7.16
2229.0  12234.63  869.19  7.10
2231.5  12152.59  860.47  7.08
2233.9  12137.64  858.18  7.07
2236.4  12131.98  854.35  7.04
2238.9  12024.13  837.00  6.96
2241.3  12068.10  831.75  6.89
2243.8  12017.57  831.75  6.92
2246.2  11870.35  815.39  6.87
2248.7  11882.39  800.90  6.74
2251.2  11860.53  799.42  6.74
2253.6  11784.96  803.84  6.82
2256.1  11773.44  780.80  6.63
2258.5  11793.92  772.18  6.55
2260.9  11696.75  767.00  6.56
2263.4  11668.53  767.67  6.58
2265.8  11678.48  770.62  6.60
2268.3  11583.48  731.19  6.31
2270.7  11653.18  734.40  6.30
2273.1  11608.55  737.60  6.35
2275.6  11523.84  719.36  6.24
2278.0  11553.06  718.70  6.22
2280.4  11529.61  732.47  6.35
2282.8  11402.06  730.45  6.41
2285.3  11435.59  702.49  6.14
2287.7  11531.47  695.09  6.03
2290.1  11440.95  698.42  6.10
2292.5  11408.96  673.30  5.90
2294.9  11404.51  684.96  6.01
2297.3  11303.39  684.22  6.05
2299.7  11233.01  655.43  5.83
2302.1  11231.11  658.65  5.86
2304.5  11113.20  636.35  5.73
2306.9  10995.60  624.59  5.68
2309.3  10932.15  630.85  5.77
2311.7  10856.55  625.39  5.76
2314.1  10708.33  609.13  5.69
2316.5  10641.94  625.15  5.87
2318.9  10674.03  635.92  5.96
2321.3  10672.73  606.14  5.68
2323.7  10642.23  621.63  5.84
2326.1  10606.96  620.62  5.85
2328.4  10691.58  607.54  5.68
2330.8  10736.25  620.32  5.78
2333.2  10617.06  595.79  5.61
2335.6  10582.60  606.14  5.73
2337.9  10642.00  605.13  5.69
2340.3  10592.40  591.96  5.59
2342.7  10507.23  600.90  5.72
2345.0  10502.01  588.87  5.61
2347.4  10493.25  576.58  5.49
2349.7  10277.63  552.47  5.38
2352.1  10236.25  558.91  5.46
2354.4  10290.21  555.92  5.40
2356.8  10243.45  541.02  5.28
2359.2  10187.67  579.22  5.69
2361.5  10122.93  583.23  5.76
2363.8  10144.75  548.96  5.41
2366.2  10159.49  534.02  5.26
2368.5  10097.05  534.00  5.29
2370.9  10118.68  559.17  5.53
2373.2  10072.53  532.11  5.28
2375.5  9932.38  535.46  5.39
2377.9  9918.93  539.41  5.44
2380.2  9923.89  519.26  5.23
2382.5  9856.28  526.90  5.35
2384.8  9822.88  508.85  5.18
2387.2  9807.99  529.78  5.40
2389.5  9759.69  502.07  5.14
2391.8  9772.85  476.92  4.88
2394.1  9716.63  518.22  5.33
2396.4  9652.48  506.41  5.25
2398.7  9714.10  490.41  5.05
2401.0  9598.25  473.08  4.93
2403.3  9511.80  483.06  5.08
2405.6  9521.83  508.16  5.34
2407.9  9458.88  484.30  5.12
2410.2  9400.00  462.90  4.92
2412.5  9350.27  467.51  5.00
2414.8  9330.30  477.56  5.12
2417.1  9280.68  459.39  4.95
2419.4  9294.64  456.74  4.91
2421.7  9214.94  474.85  5.15
2424.0  9156.02  459.65  5.02
2426.2  9223.40  469.02  5.09
2428.5  9129.27  479.54  5.25
2430.8  9112.40  452.35  4.96
2433.1  9071.93  429.63  4.74
2435.4  8991.17  432.68  4.81
2437.6  8963.19  432.68  4.83
2439.9  8866.09  396.80  4.48
2442.2  8873.80  436.11  4.91
2444.4  8827.50  455.64  5.16
2446.7  8812.56  395.17  4.48
2448.9  8870.66  398.72  4.49
2451.2  8802.92  421.17  4.78
2453.4  8732.64  407.81  4.67
2455.7  8702.87  397.34  4.57
2457.9  8608.05  407.00  4.73
2460.2  8594.01  398.67  4.64
2462.4  8611.20  397.28  4.61
2464.7  8503.63  376.40  4.43
2466.9  8416.62  385.20  4.58
2469.2  8471.54  421.31  4.97
2471.4  8370.38  382.96  4.58
2473.6  8261.63  383.85  4.65
2475.9  8256.69  417.69  5.06
2478.1  8211.66  391.68  4.77
2480.3  8173.00  345.76  4.23
2482.5  8177.69  364.57  4.46
2484.8  8119.06  402.92  4.96
2487.0  8110.30  395.02  4.87
2489.2  8058.48  386.97  4.80
2491.4  7946.29  409.87  5.16
2493.6  7987.26  373.63  4.68
2495.8  7981.68  364.24  4.56
2498.0  7985.07  378.31  4.74
2500.2  7961.63  384.74  4.83
2502.4  8125.20  384.80  4.74
2504.6  8272.59  384.99  4.65
2506.8  8348.61  412.40  4.94
