/*** Spectra Vista SIG Data ***/
name= RT1.sig
comm= Averaged Ref/Tar of files: RD4T1,RD4T2,RD4T3
data=
346.4  340.80  71.35  20.94
347.9  367.09  69.45  18.92
349.5  399.36  74.88  18.75
351.1  433.68  72.80  16.79
352.6  460.14  75.48  16.40
354.2  492.51  78.10  15.86
355.7  538.80  82.62  15.33
357.3  568.67  82.76  14.55
358.8  585.41  86.21  14.73
360.4  620.84  90.52  14.58
361.9  639.04  86.83  13.59
363.5  669.99  88.64  13.23
365.1  686.57  90.62  13.20
366.6  733.66  86.54  11.80
368.2  777.26  84.16  10.83
369.7  809.72  87.07  10.75
371.3  867.57  94.39  10.88
372.8  909.68  88.09  9.68
374.4  951.19  91.23  9.59
375.9  983.07  87.83  8.93
377.4  1019.66  92.81  9.10
379.0  1055.00  88.69  8.41
380.5  1084.82  91.10  8.40
382.1  1116.99  85.89  7.69
383.6  1163.77  86.18  7.41
385.2  1204.50  86.17  7.15
386.7  1260.34  87.72  6.96
388.3  1320.71  88.05  6.67
389.8  1373.87  90.04  6.55
391.3  1425.92  91.72  6.43
392.9  1463.75  95.21  6.50
394.4  1503.04  98.12  6.53
395.9  1566.86  106.34  6.79
397.5  1640.84  114.99  7.01
399.0  1713.41  110.00  6.42
400.6  1767.34  99.24  5.62
402.1  1795.68  94.94  5.29
403.6  1820.90  93.98  5.16
405.1  1866.85  88.05  4.72
406.7  1930.88  90.79  4.70
408.2  2001.41  95.04  4.75
409.7  2064.16  97.66  4.73
411.3  2128.61  99.45  4.67
412.8  2179.22  108.71  4.99
414.3  2248.03  106.71  4.75
415.8  2315.00  109.00  4.71
417.4  2384.53  110.98  4.65
418.9  2438.92  113.34  4.65
420.4  2491.25  108.68  4.36
421.9  2528.90  114.23  4.52
423.5  2576.67  110.21  4.28
425.0  2614.97  109.98  4.21
426.5  2670.30  109.51  4.10
428.0  2738.04  107.28  3.92
429.5  2820.30  111.65  3.96
431.1  2917.98  109.91  3.77
432.6  3022.17  113.05  3.74
434.1  3121.39  115.24  3.69
435.6  3210.17  117.13  3.65
437.1  3292.58  122.46  3.72
438.6  3380.78  120.00  3.55
440.1  3459.46  123.97  3.58
441.6  3549.43  125.49  3.54
443.1  3629.81  129.06  3.56
444.7  3707.22  135.90  3.67
446.2  3767.95  133.60  3.55
447.7  3836.04  135.49  3.53
449.2  3908.52  135.07  3.46
450.7  3965.52  137.28  3.46
452.2  4034.15  138.86  3.44
453.7  4115.19  136.09  3.31
455.2  4205.69  137.86  3.28
456.7  4326.08  137.52  3.18
458.2  4453.50  139.10  3.12
459.7  4591.13  141.63  3.08
461.2  4724.02  143.55  3.04
462.7  4831.21  148.45  3.07
464.2  4944.66  152.75  3.09
465.7  5062.68  157.71  3.12
467.2  5160.93  158.62  3.07
468.7  5264.00  162.67  3.09
470.2  5336.05  168.18  3.15
471.7  5439.94  176.70  3.25
473.2  5622.31  177.60  3.16
474.6  5770.75  174.28  3.02
476.1  5808.80  175.82  3.03
477.6  5821.61  172.78  2.97
479.1  5853.68  168.57  2.88
480.6  5893.36  171.10  2.90
482.1  5967.83  171.08  2.87
483.6  6058.48  168.77  2.79
485.1  6170.68  172.67  2.80
486.6  6309.93  173.10  2.74
488.0  6450.44  177.23  2.75
489.5  6599.70  177.86  2.70
491.0  6753.96  184.04  2.72
492.5  6904.44  184.25  2.67
494.0  7062.38  189.22  2.68
495.4  7196.48  192.28  2.67
496.9  7332.14  196.17  2.68
498.4  7463.08  199.49  2.67
499.9  7593.07  204.72  2.70
501.4  7717.26  208.00  2.70
502.8  7836.22  211.99  2.71
504.3  7936.20  215.76  2.72
505.8  8043.74  222.96  2.77
507.2  8110.53  225.15  2.78
508.7  8150.98  227.53  2.79
510.2  8186.99  232.43  2.84
511.6  8208.23  234.75  2.86
513.1  8262.60  229.14  2.77
514.6  8332.74  236.59  2.84
516.0  8382.21  240.99  2.88
517.5  8475.27  243.81  2.88
519.0  8590.00  246.99  2.88
520.5  8695.28  253.22  2.91
521.9  8839.73  257.36  2.91
523.4  9001.38  266.89  2.97
524.8  9160.51  273.89  2.99
526.3  9344.82  281.73  3.01
527.8  9530.69  289.26  3.04
529.2  9699.19  295.84  3.05
530.7  9886.41  305.23  3.09
532.1  10053.97  314.55  3.13
533.6  10247.97  322.96  3.15
535.0  10444.38  331.72  3.18
536.5  10635.67  341.52  3.21
538.0  10840.36  352.30  3.25
539.4  11019.87  361.26  3.28
540.9  11250.92  370.20  3.29
542.3  11448.91  377.97  3.30
543.8  11594.57  386.82  3.34
545.2  11631.87  391.11  3.36
546.6  11636.32  390.13  3.35
548.1  11642.11  393.67  3.38
549.5  11642.27  396.97  3.41
551.0  11643.87  400.29  3.44
552.4  11663.09  400.95  3.44
553.9  11675.28  408.60  3.50
555.3  11692.69  411.84  3.52
556.8  11756.06  417.31  3.55
558.2  11809.13  423.00  3.58
559.6  11881.48  429.87  3.62
561.1  11993.31  438.97  3.66
562.5  12114.90  449.98  3.71
564.0  12277.41  462.82  3.77
565.4  12429.83  473.64  3.81
566.8  12614.17  490.47  3.89
568.3  12791.50  505.51  3.95
569.7  12985.20  523.70  4.03
571.1  13165.80  543.37  4.13
572.6  13351.23  565.49  4.24
574.0  13536.60  583.44  4.31
575.4  13706.72  605.93  4.42
576.9  13868.66  631.09  4.55
578.3  14020.26  657.09  4.69
579.7  14159.22  686.85  4.85
581.1  14279.24  713.99  5.00
582.6  14408.29  744.28  5.17
584.0  14522.00  780.73  5.38
585.4  14676.52  819.59  5.58
586.8  14905.03  864.47  5.80
588.3  15133.95  909.48  6.01
589.7  15331.68  954.72  6.23
591.1  15466.02  1000.22  6.47
592.5  15536.59  1044.37  6.72
594.0  15573.30  1085.43  6.97
595.4  15581.55  1130.69  7.26
596.8  15596.30  1175.46  7.54
598.2  15598.18  1226.33  7.86
599.6  15596.42  1278.71  8.20
601.0  15639.12  1335.99  8.54
602.4  15673.60  1399.09  8.93
603.9  15748.43  1468.55  9.33
605.3  15815.68  1538.26  9.73
606.7  15881.40  1611.60  10.15
608.1  16009.09  1694.79  10.59
609.5  16141.17  1780.55  11.03
610.9  16300.90  1875.43  11.51
612.3  16453.92  1971.86  11.98
613.7  16654.20  2081.93  12.50
615.1  16792.11  2190.24  13.04
616.5  16936.76  2293.86  13.54
617.9  17154.76  2421.06  14.11
619.3  17355.67  2551.31  14.70
620.7  17602.69  2689.73  15.28
622.1  17855.25  2818.94  15.79
623.5  18142.91  2936.00  16.18
624.9  18464.12  3061.28  16.58
626.3  18676.51  3174.46  17.00
627.7  18480.83  3241.47  17.54
629.1  18305.12  3327.93  18.18
630.5  18226.44  3434.11  18.84
631.9  18223.49  3547.29  19.47
633.3  18218.28  3651.87  20.05
634.7  18285.17  3761.09  20.57
636.1  18311.39  3841.52  20.98
637.5  18342.35  3915.95  21.35
638.9  18405.16  3984.91  21.65
640.2  18464.62  4045.20  21.91
641.6  18482.49  4086.89  22.11
643.0  18453.48  4118.19  22.32
644.4  18445.09  4144.95  22.47
645.8  18385.56  4166.06  22.66
647.2  18449.67  4212.83  22.83
648.5  18488.23  4250.48  22.99
649.9  18404.10  4276.04  23.23
651.3  18337.05  4319.36  23.56
652.7  18249.08  4367.64  23.93
654.1  18146.19  4338.46  23.91
655.5  18027.21  4271.51  23.69
656.8  17913.01  4204.67  23.47
658.2  18029.39  4197.23  23.28
659.6  18243.57  4205.38  23.05
660.9  18420.18  4208.82  22.85
662.3  18592.04  4191.51  22.54
663.7  18769.80  4170.88  22.22
665.0  18918.47  4151.12  21.94
666.4  19067.18  4125.04  21.63
667.8  19256.38  4117.95  21.38
669.1  19421.37  4114.00  21.18
670.5  19609.02  4135.66  21.09
671.9  19731.90  4152.90  21.05
673.2  19898.87  4202.61  21.12
674.6  20056.80  4274.12  21.31
676.0  20228.64  4367.73  21.59
677.3  20404.25  4498.10  22.04
678.7  20600.81  4669.05  22.66
680.0  20846.79  4903.87  23.52
681.4  21108.38  5209.06  24.68
682.8  21364.53  5595.29  26.19
684.1  21619.26  6058.10  28.02
685.5  21847.13  6597.59  30.20
686.8  22073.58  7195.01  32.60
688.2  22276.00  7818.14  35.10
689.5  22357.00  8423.65  37.68
690.9  22421.04  9012.32  40.20
692.2  22466.78  9573.04  42.61
693.6  22511.12  10100.08  44.87
694.9  22502.85  10568.18  46.96
696.2  22528.07  11013.78  48.89
697.6  22551.10  11410.36  50.60
698.9  22578.60  11773.70  52.15
700.3  22606.89  12107.92  53.56
701.6  22646.95  12421.41  54.85
703.0  22694.78  12701.39  55.97
704.3  22706.37  12939.19  56.98
705.6  22702.23  13142.39  57.89
707.0  22704.82  13330.16  58.71
708.3  22646.20  13477.33  59.51
709.6  22597.33  13598.45  60.18
711.0  22500.10  13685.88  60.83
712.3  22411.69  13767.58  61.43
713.6  22354.29  13854.46  61.98
714.9  22303.18  13922.96  62.43
716.3  22276.29  14005.40  62.87
717.6  22261.96  14098.04  63.33
718.9  22214.84  14140.01  63.65
720.2  22081.36  14130.95  63.99
721.6  21997.43  14125.56  64.21
722.9  21880.30  14114.26  64.51
724.2  21710.92  14079.45  64.85
725.5  21599.76  14059.93  65.09
726.8  21485.93  14031.45  65.31
728.1  21416.26  14020.70  65.47
729.5  21341.65  14005.28  65.62
730.8  21295.01  13999.21  65.74
732.1  21223.37  13982.52  65.88
733.4  21170.30  13981.90  66.04
734.7  21120.77  13966.84  66.13
736.0  21106.80  13979.52  66.23
737.3  21048.39  13980.26  66.42
738.6  21092.71  14038.46  66.56
739.9  21176.51  14133.83  66.74
741.2  21233.94  14204.73  66.90
742.5  21368.21  14338.56  67.10
743.8  21611.49  14530.29  67.23
745.1  21972.01  14822.16  67.46
746.4  22417.62  15148.29  67.57
747.7  22884.17  15472.01  67.61
749.0  23318.82  15768.76  67.62
750.3  23585.52  15925.41  67.52
751.6  23542.94  15891.81  67.50
752.9  23315.57  15763.35  67.61
754.2  23042.15  15613.15  67.76
755.4  22753.28  15467.65  67.98
756.7  22664.25  15448.23  68.16
758.0  22673.40  15501.62  68.37
759.3  22820.85  15645.67  68.56
760.6  23029.16  15828.73  68.73
761.9  23226.93  16004.00  68.90
763.1  23344.98  16118.83  69.05
764.4  23488.74  16247.78  69.17
765.7  23599.88  16347.07  69.27
767.0  23700.39  16438.09  69.36
768.2  23773.68  16518.21  69.48
769.5  23833.65  16588.09  69.60
770.8  23956.12  16701.61  69.72
772.0  23990.79  16746.58  69.80
773.3  24042.18  16814.32  69.94
774.6  24115.47  16899.87  70.08
775.8  24202.18  16956.79  70.06
777.1  24216.22  16995.65  70.18
778.4  24195.08  17003.59  70.28
779.6  24187.19  17028.95  70.40
780.9  24146.00  17038.40  70.56
782.1  24062.37  17016.53  70.72
783.4  24078.08  17037.14  70.76
784.6  24096.40  17083.48  70.90
785.9  24266.86  17257.23  71.11
787.1  24608.46  17523.83  71.21
788.4  24866.63  17678.56  71.09
789.6  24869.75  17598.36  70.76
790.9  24661.14  17433.60  70.69
792.1  24392.68  17293.42  70.90
793.4  24151.80  17134.15  70.94
794.6  23969.19  17013.78  70.98
795.8  23823.90  16932.58  71.07
797.1  23657.33  16839.66  71.18
798.3  23526.94  16789.96  71.36
799.5  23474.04  16757.97  71.39
800.8  23402.91  16720.77  71.45
802.0  23314.16  16676.39  71.53
803.2  23223.76  16615.52  71.55
804.5  23155.20  16580.69  71.61
805.7  23091.89  16537.27  71.62
806.9  23005.10  16486.08  71.66
808.1  22953.51  16448.73  71.66
809.4  22916.64  16436.64  71.72
810.6  22856.93  16405.48  71.77
811.8  22862.50  16400.64  71.74
813.0  22853.20  16421.13  71.85
814.2  22877.00  16441.46  71.87
815.4  22934.52  16473.77  71.83
816.6  22960.29  16489.66  71.82
817.9  22999.02  16485.39  71.68
819.1  22952.63  16451.43  71.68
820.3  22878.74  16384.92  71.62
821.5  22815.86  16331.52  71.58
822.7  22791.84  16293.59  71.49
823.9  22775.35  16282.47  71.49
825.1  22775.00  16262.56  71.41
826.3  22791.99  16248.22  71.29
827.5  22821.63  16240.64  71.16
828.7  22859.28  16229.34  71.00
829.9  22876.22  16200.67  70.82
831.0  22931.35  16209.94  70.69
832.2  22973.83  16219.43  70.60
833.4  23011.27  16227.30  70.52
834.6  23055.47  16243.13  70.45
835.8  23102.89  16259.04  70.38
837.0  23141.45  16286.42  70.38
838.1  23220.35  16333.25  70.34
839.3  23268.86  16363.20  70.32
840.5  23336.16  16414.93  70.34
841.7  23406.57  16458.19  70.31
842.9  23478.07  16530.94  70.41
844.0  23532.58  16575.04  70.43
845.2  23619.32  16631.93  70.42
846.4  23671.24  16675.52  70.45
847.5  23782.36  16756.82  70.46
848.7  23899.65  16818.80  70.37
849.9  23995.36  16867.10  70.29
851.0  24041.10  16886.03  70.24
852.2  24081.27  16902.73  70.19
853.3  24064.15  16867.98  70.10
854.5  24063.76  16854.42  70.04
855.6  24077.79  16856.66  70.01
856.8  24094.25  16868.71  70.01
857.9  24088.46  16860.29  69.99
859.1  24139.70  16906.99  70.04
860.2  24162.30  16914.13  70.00
861.4  24186.95  16929.06  69.99
862.5  24205.94  16942.76  69.99
863.7  24256.78  16959.97  69.92
864.8  24282.48  16983.21  69.94
865.9  24260.64  16954.22  69.88
867.1  24288.08  16977.24  69.90
868.2  24288.56  16961.32  69.83
869.3  24311.53  16956.46  69.75
870.5  24282.74  16935.21  69.74
871.6  24305.37  16924.49  69.63
872.7  24342.22  16958.02  69.67
873.9  24350.48  16963.96  69.67
875.0  24336.91  16939.35  69.60
876.1  24343.75  16918.80  69.50
877.2  24343.41  16898.36  69.42
878.3  24368.92  16896.42  69.34
879.4  24397.15  16908.21  69.30
880.5  24413.58  16902.24  69.23
881.7  24420.50  16886.48  69.15
882.8  24475.22  16886.55  68.99
883.9  24468.46  16866.95  68.93
885.0  24474.79  16811.61  68.69
886.1  24498.26  16764.04  68.43
887.2  24394.17  16690.82  68.42
888.3  24342.70  16613.35  68.25
889.4  24315.74  16550.60  68.07
890.5  24277.48  16500.76  67.97
891.6  24261.50  16457.04  67.83
892.7  24242.78  16444.74  67.83
893.8  24216.07  16442.64  67.90
894.9  24253.85  16430.35  67.74
896.0  24260.72  16431.40  67.73
897.0  24313.79  16394.46  67.43
898.1  24310.03  16383.15  67.39
899.2  24312.02  16368.66  67.33
900.3  24277.85  16331.09  67.27
901.4  24223.96  16271.87  67.17
902.4  24262.14  16274.51  67.08
903.5  24215.60  16240.08  67.06
904.6  24255.42  16219.29  66.87
905.7  24275.35  16187.41  66.68
906.7  24232.03  16163.68  66.70
907.8  24260.93  16164.91  66.63
908.9  24225.73  16115.50  66.52
909.9  24230.53  16075.59  66.34
911.0  24219.62  16030.68  66.19
912.1  24159.68  15974.66  66.12
913.1  24146.72  15918.66  65.92
914.2  24044.41  15856.20  65.95
915.2  24065.91  15817.50  65.73
916.3  24074.78  15799.94  65.63
917.3  24064.16  15726.23  65.35
918.4  24018.09  15665.43  65.22
919.4  24009.89  15602.16  64.98
920.5  24001.76  15555.60  64.81
921.5  23994.22  15519.84  64.68
922.6  23961.44  15446.26  64.46
923.6  24014.80  15447.23  64.32
924.7  24026.25  15383.97  64.03
925.7  24027.75  15309.70  63.72
926.7  24068.18  15262.92  63.42
927.8  24121.06  15224.40  63.12
928.8  24198.38  15190.05  62.77
929.9  24249.23  15163.77  62.53
930.9  24364.95  15139.61  62.14
931.9  24471.97  15178.31  62.02
932.9  24649.27  15206.01  61.69
934.0  24688.77  15137.45  61.31
935.0  24731.47  15083.17  60.99
936.0  24726.44  14987.87  60.61
937.0  24705.92  14906.81  60.34
938.1  24690.32  14830.91  60.07
939.1  24641.88  14767.10  59.93
940.1  24710.97  14712.06  59.54
941.1  24857.20  14710.51  59.18
942.1  24988.75  14718.72  58.90
943.1  25073.30  14689.72  58.59
944.1  25226.42  14688.41  58.23
945.2  25252.29  14608.44  57.85
946.2  25309.81  14557.48  57.52
947.2  25385.75  14500.28  57.12
948.2  25440.92  14455.05  56.82
949.2  25546.22  14381.58  56.30
950.2  25592.08  14317.89  55.95
951.2  25611.18  14240.02  55.60
952.2  25670.09  14143.97  55.10
953.2  25848.55  14085.59  54.49
954.2  25898.85  14049.90  54.25
955.2  25901.18  13969.64  53.93
956.2  25924.68  13872.42  53.51
957.2  25967.07  13823.56  53.23
958.2  26043.08  13780.92  52.92
959.2  26073.90  13764.00  52.79
960.1  26108.68  13727.20  52.58
961.1  26163.47  13712.47  52.41
962.1  26166.56  13656.25  52.19
963.1  26232.72  13677.01  52.14
964.1  26279.24  13652.01  51.95
965.1  26385.53  13655.38  51.75
966.1  26430.00  13676.32  51.75
967.0  26460.84  13651.20  51.59
968.0  26462.49  13686.49  51.72
969.0  26514.60  13698.85  51.67
970.0  26531.15  13682.01  51.57
971.0  26601.49  13704.42  51.52
971.9  26640.54  13688.70  51.38
972.9  26689.73  13765.72  51.58
973.9  26702.00  13768.65  51.56
974.9  26784.37  13767.89  51.40
975.8  26835.65  13816.60  51.49
976.8  26907.76  13794.85  51.27
977.8  26919.59  13906.86  51.66
978.8  27001.65  13955.96  51.69
979.7  27154.14  14032.39  51.68
980.7  27139.61  14034.39  51.71
981.7  27195.18  14220.04  52.29
982.6  27509.73  14447.81  52.52
983.6  27656.31  14507.06  52.45
984.6  27924.59  14699.91  52.64
985.5  28363.50  14925.51  52.62
986.5  28732.86  15218.80  52.97
987.5  29375.43  15630.23  53.21
988.4  30036.05  15933.87  53.05
989.4  30959.70  16212.23  52.37
990.4  31602.51  16484.88  52.16
991.3  32380.28  16837.74  52.00
992.3  32475.00  17189.58  52.93
993.2  34108.04  17472.89  51.23
994.2  35042.23  17879.55  51.02
995.2  35391.22  18539.59  52.38
996.1  36217.45  18337.95  50.63
997.1  36154.37  18196.61  50.33
998.0  35116.50  18089.28  51.51
999.0  35049.25  19174.71  54.71
1000.0  35251.41  18650.75  52.91
1000.9  36594.57  18887.52  51.61
1001.9  36083.72  18163.49  50.34
1002.8  36587.47  18063.76  49.37
1003.8  35567.62  18038.39  50.72
1004.8  35596.08  18315.25  51.45
961.5  32484.82  15114.47  46.53
965.5  31986.00  15040.53  47.02
969.5  30740.27  14929.76  48.57
973.4  29390.86  14635.32  49.80
977.4  28381.21  14303.82  50.40
981.4  27931.26  14156.94  50.68
985.3  27744.99  14121.62  50.90
989.3  27823.43  14208.82  51.07
993.3  27933.79  14317.90  51.26
997.2  27911.46  14390.17  51.56
1001.2  27870.05  14482.78  51.97
1005.2  27818.44  14586.03  52.43
1009.1  27854.84  14752.98  52.96
1013.1  27947.86  14976.43  53.59
1017.1  28020.51  15182.83  54.18
1021.0  28018.18  15344.49  54.77
1025.0  28006.41  15509.01  55.38
1029.0  27914.33  15618.67  55.95
1032.9  27806.61  15716.39  56.52
1036.9  27803.09  15874.27  57.10
1040.9  27854.95  16082.62  57.74
1044.8  27961.41  16317.06  58.36
1048.8  28076.99  16510.87  58.81
1052.7  28142.21  16668.29  59.23
1056.7  28153.25  16785.10  59.62
1060.7  28175.59  16862.88  59.85
1064.6  28184.96  16933.47  60.08
1068.6  28120.63  16934.27  60.22
1072.5  28059.15  16899.97  60.23
1076.5  28039.23  16876.03  60.19
1080.4  28041.13  16829.58  60.02
1084.4  28101.70  16790.54  59.75
1088.3  28182.69  16739.65  59.40
1092.3  28163.22  16619.48  59.01
1096.2  28140.84  16499.75  58.63
1100.2  28181.24  16393.55  58.17
1104.1  28117.59  16225.89  57.71
1108.1  28067.65  16081.77  57.30
1112.0  28014.98  15909.20  56.79
1116.0  27913.60  15680.26  56.17
1119.9  27824.49  15432.46  55.46
1123.9  27874.90  15188.10  54.49
1127.8  27855.36  14808.32  53.16
1131.8  27835.86  14342.11  51.52
1135.7  27854.79  13799.57  49.54
1139.6  27860.06  13183.84  47.32
1143.6  27849.29  12587.63  45.20
1147.5  27851.45  12079.08  43.37
1151.4  27758.28  11637.70  41.93
1155.4  27752.76  11356.85  40.92
1159.3  27779.04  11175.85  40.23
1163.2  27676.75  11000.66  39.75
1167.2  27672.18  10904.38  39.41
1171.1  27690.39  10830.04  39.11
1175.0  27654.57  10754.75  38.89
1179.0  27636.10  10699.94  38.72
1182.9  27688.86  10657.24  38.49
1186.8  27695.30  10600.21  38.27
1190.7  27569.52  10504.50  38.10
1194.7  27419.62  10405.50  37.95
1198.6  27293.81  10345.34  37.90
1202.5  27200.25  10314.79  37.92
1206.4  27132.70  10299.10  37.96
1210.3  27081.04  10305.38  38.05
1214.2  27024.83  10327.41  38.21
1218.2  26933.31  10351.56  38.43
1222.1  26861.55  10387.21  38.67
1226.0  26811.29  10431.81  38.91
1229.9  26766.06  10477.04  39.14
1233.8  26716.82  10511.81  39.35
1237.7  26693.90  10553.09  39.53
1241.6  26651.31  10579.01  39.69
1245.5  26563.65  10590.62  39.87
1249.4  26496.77  10597.31  39.99
1253.3  26424.10  10600.32  40.12
1257.2  26386.94  10612.46  40.22
1261.1  26334.40  10604.52  40.27
1265.0  26252.61  10584.67  40.32
1268.9  26145.20  10536.88  40.30
1272.8  26185.80  10524.10  40.19
1276.7  26302.73  10535.89  40.06
1280.6  26352.96  10516.28  39.91
1284.5  26317.47  10436.45  39.66
1288.4  26317.72  10352.75  39.34
1292.3  26251.50  10230.00  38.97
1296.2  26160.25  10084.32  38.55
1300.1  26059.62  9917.53  38.06
1303.9  25925.19  9705.98  37.44
1307.8  25787.70  9481.70  36.77
1311.7  25630.17  9249.01  36.09
1315.6  25482.26  8993.99  35.30
1319.5  25332.93  8718.32  34.41
1323.3  25187.48  8442.85  33.52
1327.2  25064.93  8166.79  32.58
1331.1  24923.42  7888.53  31.65
1335.0  24744.20  7598.86  30.71
1338.8  24620.86  7336.07  29.80
1342.7  24530.16  7106.69  28.97
1346.5  24331.08  6855.45  28.18
1350.4  24169.12  6646.32  27.50
1354.3  23949.14  6425.97  26.83
1358.1  23693.95  6196.85  26.15
1362.0  23530.78  5996.29  25.48
1365.8  23459.84  5799.37  24.72
1369.7  23508.05  5602.55  23.83
1373.5  23469.07  5342.49  22.76
1377.4  23330.07  4999.79  21.43
1381.2  23213.30  4592.69  19.78
1385.1  23185.27  4177.32  18.02
1389.0  23111.78  3759.78  16.27
1392.8  22984.07  3341.05  14.54
1396.6  22895.53  2958.61  12.92
1400.5  22761.66  2631.98  11.56
1404.3  22655.33  2373.84  10.48
1408.2  22624.16  2174.77  9.61
1412.0  22589.60  2018.17  8.93
1415.8  22607.28  1899.26  8.40
1419.6  22576.45  1806.02  8.00
1423.5  22542.06  1730.93  7.68
1427.3  22514.94  1674.01  7.44
1431.1  22506.00  1634.48  7.26
1434.9  22447.92  1598.56  7.12
1438.8  22413.83  1579.60  7.05
1442.6  22382.98  1564.05  6.99
1446.4  22300.88  1542.05  6.91
1450.2  22249.24  1532.00  6.89
1454.0  22182.12  1524.56  6.87
1457.8  22164.02  1528.97  6.90
1461.6  22148.38  1539.25  6.95
1465.4  22082.35  1546.84  7.00
1469.2  21969.68  1559.90  7.10
1473.0  21877.42  1587.83  7.26
1476.8  21850.58  1621.94  7.42
1480.7  21812.31  1665.19  7.63
1484.4  21730.68  1714.56  7.89
1488.2  21671.40  1770.04  8.17
1492.0  21591.63  1832.84  8.49
1495.8  21523.78  1898.11  8.82
1499.6  21454.51  1945.51  9.07
1503.4  21379.07  1972.26  9.23
1507.2  21323.35  1990.31  9.33
1510.9  21243.98  2020.45  9.51
1514.7  21144.89  2064.18  9.76
1518.5  21072.06  2110.98  10.02
1522.3  20989.34  2155.00  10.27
1526.0  20921.85  2204.01  10.53
1529.8  20884.61  2262.26  10.83
1533.6  20802.56  2312.72  11.12
1537.3  20718.23  2356.98  11.38
1541.1  20646.58  2403.80  11.64
1544.8  20580.00  2454.40  11.93
1548.6  20494.10  2504.97  12.22
1552.4  20440.57  2551.55  12.48
1556.1  20395.83  2587.54  12.69
1559.9  20329.85  2614.25  12.86
1563.6  20251.55  2649.40  13.08
1567.3  20197.89  2699.90  13.37
1571.1  20068.75  2739.04  13.65
1574.8  19979.19  2784.04  13.93
1578.6  19927.86  2831.37  14.21
1582.3  19847.81  2863.62  14.43
1586.0  19767.00  2891.17  14.63
1589.8  19685.89  2917.68  14.82
1593.5  19600.32  2936.04  14.98
1597.2  19524.93  2954.03  15.13
1600.9  19437.87  2976.51  15.31
1604.7  19353.76  3002.15  15.51
1608.4  19286.50  3028.35  15.70
1612.1  19192.76  3047.81  15.88
1615.8  19101.23  3064.44  16.04
1619.5  19051.05  3093.64  16.24
1623.2  18959.56  3114.86  16.43
1626.9  18852.85  3121.96  16.56
1630.6  18764.68  3138.74  16.73
1634.3  18691.14  3153.88  16.87
1638.0  18598.45  3155.20  16.96
1641.7  18509.81  3158.63  17.06
1645.4  18402.68  3159.28  17.17
1649.1  18288.46  3148.48  17.22
1652.8  18195.71  3139.97  17.26
1656.4  18092.34  3131.48  17.31
1660.1  18000.80  3124.14  17.36
1663.8  17885.69  3106.50  17.37
1667.5  17799.77  3087.29  17.34
1671.1  17730.24  3076.51  17.35
1674.8  17616.48  3056.23  17.35
1678.5  17581.25  3041.22  17.30
1682.1  17590.27  3032.38  17.24
1685.8  17607.50  3018.90  17.15
1689.5  17542.91  2993.14  17.06
1693.1  17457.42  2960.92  16.96
1696.8  17380.25  2923.63  16.82
1700.4  17288.56  2883.02  16.68
1704.0  17215.22  2843.29  16.52
1707.7  17067.04  2789.19  16.34
1711.3  16895.27  2726.40  16.14
1715.0  16777.65  2674.73  15.94
1718.6  16676.16  2624.42  15.74
1722.2  16593.53  2574.15  15.51
1725.9  16502.51  2528.82  15.32
1729.5  16414.51  2492.15  15.18
1733.1  16344.39  2464.58  15.08
1736.7  16279.61  2444.58  15.02
1740.3  16185.41  2414.96  14.92
1744.0  16134.66  2390.41  14.82
1747.5  16057.96  2355.13  14.67
1751.2  15927.46  2302.20  14.45
1754.8  15831.63  2253.83  14.24
1758.4  15751.09  2218.71  14.09
1762.0  15645.56  2177.97  13.92
1765.5  15566.72  2144.53  13.78
1769.1  15535.20  2128.80  13.70
1772.7  15491.98  2109.50  13.62
1776.3  15419.88  2087.65  13.54
1779.9  15347.07  2068.67  13.48
1783.5  15311.52  2055.09  13.42
1787.0  15236.40  2030.85  13.33
1790.6  15143.84  2012.99  13.29
1794.2  15087.44  2007.77  13.31
1797.8  15036.76  1998.06  13.29
1801.3  14981.52  1994.59  13.31
1804.9  14902.13  1992.38  13.37
1808.4  14858.32  1991.96  13.41
1812.0  14777.75  1981.05  13.41
1815.5  14700.64  1974.73  13.43
1819.1  14590.83  1962.87  13.45
1822.6  14487.72  1951.90  13.47
1826.2  14418.70  1938.74  13.45
1829.7  14328.55  1921.28  13.41
1833.2  14190.94  1901.59  13.40
1836.8  14045.85  1875.97  13.36
1840.3  13941.54  1847.27  13.25
1843.8  13860.63  1817.90  13.12
1847.3  13802.68  1791.21  12.98
1850.8  13724.93  1761.98  12.84
1854.3  13613.82  1713.09  12.58
1857.8  13561.60  1646.67  12.14
1861.3  13547.76  1564.73  11.55
1864.8  13535.27  1472.68  10.88
1868.3  13463.39  1353.93  10.06
1871.8  13340.16  1221.12  9.15
1875.3  13273.26  1090.64  8.22
1878.8  13256.08  982.22  7.41
1882.3  13214.27  890.35  6.74
1885.8  13106.59  787.04  6.00
1889.3  12978.60  734.01  5.66
1892.7  12864.86  687.66  5.35
1896.2  12801.57  646.35  5.05
1899.7  12669.52  626.19  4.94
1903.1  12560.86  612.30  4.87
1906.6  12596.90  679.32  5.39
1910.0  12738.13  757.48  5.95
1913.5  12973.91  900.19  6.94
1917.0  13403.78  1120.06  8.36
1920.4  13682.60  1309.71  9.57
1923.8  13545.75  1462.94  10.80
1871.2  12087.68  915.73  7.58
1873.9  12220.22  891.28  7.29
1876.7  12301.52  822.10  6.68
1879.5  12428.25  721.99  5.81
1882.3  12206.32  673.62  5.52
1885.1  12128.34  571.79  4.71
1887.8  12221.56  525.04  4.30
1890.6  12108.22  509.38  4.21
1893.4  12100.00  459.56  3.80
1896.2  12041.04  444.69  3.69
1898.9  12011.63  430.36  3.58
1901.7  11891.87  395.81  3.33
1904.5  12018.88  372.06  3.10
1907.2  12012.75  394.25  3.28
1910.0  11893.49  389.10  3.27
1912.7  11869.88  352.29  2.97
1915.5  11831.92  341.21  2.88
1918.2  11779.87  329.21  2.79
1921.0  11683.46  316.33  2.71
1923.7  11689.18  324.61  2.78
1926.5  11652.35  324.58  2.79
1929.2  11640.20  320.67  2.75
1932.0  11635.12  326.53  2.81
1934.7  11593.68  321.00  2.77
1937.4  11519.59  310.17  2.69
1940.2  11491.19  324.75  2.83
1942.9  11531.42  335.97  2.91
1945.6  11563.58  315.09  2.72
1948.3  11524.93  329.91  2.86
1951.1  11489.17  340.13  2.96
1953.8  11466.00  341.00  2.97
1956.5  11360.04  349.42  3.08
1959.2  11418.81  342.85  3.00
1961.9  11446.18  346.67  3.03
1964.6  11367.48  358.99  3.16
1967.3  11400.90  373.80  3.28
1970.0  11289.44  369.01  3.27
1972.8  11234.23  372.61  3.32
1975.5  11291.08  367.78  3.26
1978.2  11253.68  366.95  3.26
1980.9  11190.69  382.84  3.42
1983.5  11156.37  381.96  3.42
1986.2  11145.30  389.94  3.50
1988.9  11136.57  402.55  3.61
1991.6  11039.20  402.64  3.65
1994.3  10958.34  399.55  3.65
1997.0  10994.15  411.36  3.74
1999.7  10961.15  413.52  3.77
2002.3  10945.72  419.99  3.84
2005.0  10902.57  442.05  4.05
2007.7  10847.47  433.82  4.00
2010.4  10803.32  430.16  3.98
2013.0  10762.64  452.36  4.20
2015.7  10696.03  451.83  4.22
2018.4  10628.99  451.97  4.25
2021.0  10616.50  467.50  4.40
2023.7  10554.77  463.58  4.39
2026.4  10528.70  443.15  4.21
2029.0  10481.89  462.05  4.41
2031.7  10396.32  475.08  4.57
2034.3  10404.77  471.32  4.53
2037.0  10328.24  484.18  4.69
2039.6  10285.55  478.27  4.65
2042.3  10275.69  479.29  4.66
2044.9  10201.79  494.62  4.85
2047.5  10204.59  493.68  4.84
2050.2  10158.40  488.13  4.81
2052.8  10105.20  498.40  4.93
2055.4  10049.58  498.70  4.96
2058.1  9962.40  493.73  4.96
2060.7  9933.43  512.42  5.16
2063.3  9914.96  508.10  5.12
2065.9  9868.54  496.92  5.04
2068.6  9795.96  523.90  5.35
2071.2  9784.53  528.24  5.40
2073.8  9724.21  516.76  5.31
2076.4  9688.61  527.65  5.45
2079.0  9694.50  536.71  5.54
2081.6  9703.19  526.09  5.42
2084.2  9703.71  534.23  5.51
2086.8  9599.36  538.32  5.61
2089.4  9542.55  526.68  5.52
2092.1  9497.33  547.78  5.77
2094.7  9458.10  554.64  5.86
2097.2  9452.00  545.89  5.78
2099.8  9456.63  557.00  5.89
2102.4  9374.47  552.55  5.89
2105.0  9285.30  549.10  5.91
2107.6  9259.93  555.42  6.00
2110.2  9238.26  563.60  6.10
2112.8  9225.66  565.03  6.12
2115.3  9245.99  568.67  6.15
2117.9  9244.71  569.69  6.16
2120.5  9193.91  573.29  6.24
2123.1  9158.18  581.10  6.35
2125.6  9124.69  572.00  6.27
2128.2  9072.67  577.53  6.37
2130.8  9041.18  596.70  6.60
2133.3  9008.27  594.49  6.60
2135.9  8954.43  586.37  6.55
2138.4  8866.52  595.23  6.71
2141.0  8800.31  595.50  6.77
2143.6  8777.41  592.20  6.75
2146.1  8706.28  596.48  6.85
2148.7  8619.12  590.27  6.85
2151.2  8597.60  589.60  6.86
2153.8  8623.97  607.31  7.04
2156.3  8588.29  600.51  6.99
2158.8  8514.46  586.73  6.89
2161.4  8488.25  613.25  7.22
2163.9  8446.98  609.33  7.21
2166.4  8385.11  595.28  7.10
2169.0  8382.15  610.06  7.28
2171.5  8320.06  607.10  7.30
2174.0  8255.63  595.99  7.22
2176.5  8255.39  609.96  7.39
2179.1  8221.85  601.33  7.31
2181.6  8179.04  580.96  7.10
2184.1  8165.08  600.60  7.36
2186.6  8194.19  615.11  7.51
2189.1  8127.72  603.48  7.42
2191.6  8085.00  604.34  7.47
2194.1  8104.87  611.19  7.54
2196.6  8087.46  604.61  7.48
2199.2  8120.84  612.78  7.55
2201.7  8090.99  622.02  7.69
2204.1  8070.33  608.39  7.54
2206.6  8079.18  615.45  7.62
2209.1  8065.84  611.91  7.59
2211.6  8043.49  588.77  7.32
2214.1  8006.31  605.74  7.57
2216.6  7980.30  616.60  7.73
2219.1  7980.30  602.67  7.55
2221.6  7948.32  609.06  7.66
2224.0  7898.13  601.98  7.62
2226.5  7883.96  568.22  7.21
2229.0  7929.29  578.62  7.30
2231.5  7843.84  584.71  7.45
2233.9  7819.81  573.40  7.33
2236.4  7847.38  571.28  7.28
2238.9  7800.38  555.42  7.12
2241.3  7769.45  538.95  6.94
2243.8  7738.35  535.07  6.91
2246.2  7675.80  529.81  6.90
2248.7  7674.77  528.36  6.88
2251.2  7655.92  529.10  6.91
2253.6  7622.40  506.88  6.65
2256.1  7614.72  491.52  6.45
2258.5  7598.82  500.70  6.59
2260.9  7551.12  481.93  6.38
2263.4  7519.30  469.56  6.24
2265.8  7501.00  476.99  6.36
2268.3  7442.68  445.12  5.98
2270.7  7484.75  437.57  5.85
2273.1  7474.42  441.03  5.90
2275.6  7426.56  435.20  5.86
2278.0  7406.10  425.33  5.74
2280.4  7419.59  423.32  5.71
2282.8  7360.04  414.27  5.63
2285.3  7360.62  404.39  5.49
2287.7  7403.88  416.54  5.63
2290.1  7361.11  395.33  5.37
2292.5  7357.29  394.19  5.36
2294.9  7334.29  413.61  5.64
2297.3  7269.29  379.68  5.22
2299.7  7205.71  350.08  4.86
2302.1  7180.99  370.57  5.16
2304.5  7138.32  351.49  4.92
2306.9  7063.84  327.97  4.64
2309.3  7009.90  340.89  4.86
2311.7  6986.50  336.24  4.81
2314.1  6892.08  315.07  4.57
2316.5  6859.54  312.57  4.56
2318.9  6866.38  323.22  4.71
2321.3  6841.80  330.14  4.83
2323.7  6852.56  327.45  4.78
2326.1  6818.76  319.71  4.69
2328.4  6814.46  306.48  4.50
2330.8  6895.74  328.56  4.76
2333.2  6844.67  336.33  4.91
2335.6  6792.13  292.00  4.30
2337.9  6860.96  303.26  4.42
2340.3  6818.09  302.28  4.43
2342.7  6753.74  286.34  4.24
2345.0  6730.97  305.76  4.54
2347.4  6681.00  280.50  4.20
2349.7  6586.91  253.45  3.85
2352.1  6586.88  274.46  4.17
2354.4  6606.54  269.36  4.08
2356.8  6561.33  259.00  3.95
2359.2  6526.00  268.67  4.12
2361.5  6527.55  254.53  3.90
2363.8  6552.37  235.69  3.60
2366.2  6509.67  258.92  3.98
2368.5  6448.05  259.58  4.03
2370.9  6490.81  253.49  3.91
2373.2  6466.21  254.81  3.94
2375.5  6384.78  233.79  3.66
2377.9  6372.55  237.03  3.72
2380.2  6359.35  248.94  3.91
2382.5  6341.10  232.82  3.67
2384.8  6319.68  221.17  3.50
2387.2  6319.87  240.67  3.81
2389.5  6312.87  220.35  3.49
2391.8  6274.40  194.89  3.11
2394.1  6213.84  235.12  3.78
2396.4  6168.88  243.53  3.95
2398.7  6216.25  201.36  3.24
2401.0  6176.31  206.04  3.34
2403.3  6100.50  214.14  3.51
2405.6  6107.96  193.27  3.16
2407.9  6102.18  203.74  3.34
2410.2  6026.03  202.21  3.36
2412.5  6001.45  189.72  3.16
2414.8  6028.49  196.84  3.27
2417.1  5987.53  208.19  3.48
2419.4  5949.82  163.25  2.74
2421.7  5887.47  159.45  2.71
2424.0  5859.22  188.44  3.22
2426.2  5874.30  162.28  2.76
2428.5  5808.55  182.08  3.13
2430.8  5804.25  203.47  3.51
2433.1  5808.25  175.17  3.02
2435.4  5762.85  167.85  2.91
2437.6  5757.26  173.45  3.01
2439.9  5676.77  164.71  2.90
2442.2  5722.46  163.07  2.85
2444.4  5754.82  151.24  2.63
2446.7  5635.60  134.32  2.38
2448.9  5649.27  161.86  2.87
2451.2  5656.04  184.76  3.27
2453.4  5604.80  144.64  2.58
2455.7  5570.81  152.04  2.73
2457.9  5506.71  162.80  2.96
2460.2  5530.01  123.30  2.23
2462.4  5516.16  126.88  2.30
2464.7  5488.25  126.17  2.30
2466.9  5424.90  126.26  2.33
2469.2  5373.30  168.52  3.14
2471.4  5389.87  151.00  2.80
2473.6  5329.22  91.50  1.72
2475.9  5276.43  119.66  2.27
2478.1  5287.71  136.64  2.58
2480.3  5200.37  90.50  1.74
2482.5  5189.69  119.14  2.30
2484.8  5177.27  138.35  2.67
2487.0  5147.63  123.44  2.40
2489.2  5193.91  138.20  2.66
2491.4  5072.10  115.28  2.27
2493.6  5118.43  99.29  1.94
2495.8  5194.43  126.69  2.44
2498.0  5082.88  99.98  1.97
2500.2  5097.13  87.06  1.71
2502.4  5283.60  130.24  2.46
2504.6  5305.35  109.55  2.06
2506.8  5309.21  51.96  0.98
