/*** Spectra Vista SIG Data ***/
name= T2.sig
comm= Resampled spectral data SIG file reprocesed for matching/overlap;Averaged Ref/Tar of files: GD3T4,GD3T5,GD3T6
data=
346.0  598.78  90.88  15.18
356.0  924.17  110.13  11.92
366.0  1234.61  121.92  9.88
376.0  1691.57  127.18  7.52
386.0  2110.32  129.11  6.12
396.0  2699.64  161.07  5.97
406.0  3258.06  159.29  4.89
416.0  3980.12  196.59  4.94
426.0  4560.62  212.58  4.66
436.0  5560.57  246.97  4.44
446.0  6459.13  296.70  4.59
456.0  7345.42  352.07  4.79
466.0  8824.96  430.18  4.87
476.0  10121.58  504.97  4.99
486.0  10943.49  553.44  5.06
496.0  12761.25  712.62  5.58
506.0  14311.81  1022.72  7.15
516.0  15112.04  1508.95  9.99
526.0  16957.18  2245.70  13.24
536.0  19355.60  2979.67  15.39
546.0  21330.59  3544.91  16.62
556.0  21581.55  3758.21  17.41
566.0  23226.44  3949.42  17.00
576.0  25810.52  4020.73  15.58
586.0  27755.51  4014.14  14.46
596.0  29194.08  4054.06  13.89
606.0  29534.45  3937.10  13.33
616.0  31318.23  3819.58  12.20
626.0  34410.58  4034.62  11.72
636.0  34069.21  3996.35  11.73
646.0  34679.65  3331.04  9.61
656.0  34069.42  2669.08  7.83
666.0  35802.93  2397.57  6.70
676.0  37841.78  2339.16  6.18
686.0  40854.13  3308.33  8.10
696.0  41747.28  6835.71  16.37
706.0  41971.06  11359.82  27.07
716.0  41223.34  14468.88  35.10
726.0  40067.78  16239.81  40.53
736.0  39511.29  16996.66  43.02
746.0  41985.01  18575.86  44.24
756.0  42844.63  19475.19  45.46
766.0  44461.06  20334.65  45.74
776.0  45318.27  20950.15  46.23
786.0  45304.05  21115.60  46.61
796.0  44083.17  21090.76  47.84
806.0  42558.06  20616.85  48.44
816.0  42205.19  20535.65  48.66
826.0  41881.04  20284.53  48.43
836.0  42513.48  20167.95  47.44
846.0  43677.73  20534.45  47.01
856.0  44639.93  21040.86  47.13
866.0  45173.91  21190.43  46.91
876.0  45452.84  21181.46  46.60
886.0  45709.40  21098.89  46.16
896.0  45235.90  20671.40  45.70
906.0  45023.00  20322.91  45.14
916.0  44495.20  19667.44  44.20
926.0  44269.25  18825.28  42.52
936.0  45413.73  18220.77  40.12
946.0  46396.61  17345.81  37.39
956.0  47429.46  16284.30  34.33
966.0  48326.20  15879.80  32.86
976.0  49108.57  15979.64  32.54
986.0  50490.65  17192.06  34.05
996.0  50607.35  17564.48  34.71
1006.0  50486.13  18025.01  35.70
1016.0  50803.76  18779.11  36.96
1026.0  50772.47  19468.68  38.34
1036.0  50488.61  20060.80  39.73
1046.0  50910.83  20826.72  40.91
1056.0  51254.42  21411.59  41.78
1066.0  51336.62  21675.50  42.22
1076.0  51162.22  21614.20  42.25
1086.0  51303.09  21438.70  41.79
1096.0  51344.30  21021.85  40.94
1106.0  51211.90  20465.67  39.96
1116.0  50831.30  19750.99  38.86
1126.0  50674.44  18765.64  37.03
1136.0  50616.91  17040.12  33.66
1146.0  50531.75  15085.12  29.85
1156.0  50358.44  13820.73  27.44
1166.0  50175.54  13300.09  26.51
1176.0  50092.24  13074.13  26.10
1186.0  50160.75  12911.19  25.74
1196.0  49589.85  12667.59  25.54
1206.0  49136.73  12578.39  25.60
1216.0  48856.16  12617.19  25.83
1226.0  48538.40  12726.57  26.22
1236.0  48332.55  12837.00  26.56
1246.0  48044.92  12891.49  26.83
1256.0  47756.51  12906.62  27.03
1266.0  47442.71  12834.68  27.05
1276.0  47551.66  12788.03  26.89
1286.0  47606.03  12599.36  26.47
1296.0  47326.24  12210.43  25.80
1306.0  46758.50  11595.23  24.80
1316.0  46095.57  10831.54  23.50
1326.0  45453.96  9971.72  21.94
1336.0  44765.54  9127.01  20.39
1346.0  44091.89  8380.92  19.01
1356.0  43065.01  7713.45  17.91
1366.0  42453.65  7082.21  16.68
1376.0  42338.17  6340.24  14.98
1386.0  41985.88  5242.71  12.49
1396.0  41548.36  4111.08  9.89
1406.0  41106.41  3323.77  8.09
1416.0  41061.27  2896.33  7.05
1426.0  40954.01  2672.39  6.53
1436.0  40796.14  2569.96  6.30
1446.0  40594.32  2516.97  6.20
1456.0  40330.62  2495.87  6.19
1466.0  40125.74  2520.17  6.28
1476.0  39754.25  2591.81  6.52
1486.0  39484.92  2738.76  6.94
1496.0  39151.21  2919.22  7.46
1506.0  38800.67  3036.16  7.83
1516.0  38385.61  3133.40  8.16
1526.0  38038.86  3227.05  8.48
1536.0  37757.73  3331.25  8.82
1546.0  37407.06  3482.52  9.31
1556.0  37137.95  3630.84  9.78
1566.0  36823.70  3778.09  10.26
1576.0  36372.01  3903.06  10.73
1586.0  36009.48  3994.93  11.09
1596.0  35619.37  4062.72  11.41
1606.0  35232.08  4121.71  11.70
1616.0  34829.65  4176.50  11.99
1626.0  34452.68  4219.72  12.25
1636.0  34007.58  4244.09  12.48
1646.0  33523.68  4252.14  12.68
1656.0  33037.62  4236.07  12.82
1666.0  32548.04  4187.99  12.87
1676.0  32123.29  4120.24  12.83
1686.0  32117.51  4063.11  12.65
1696.0  31764.57  3947.06  12.43
1706.0  31316.98  3785.04  12.09
1716.0  30611.05  3589.79  11.73
1726.0  30177.81  3422.78  11.34
1736.0  29812.17  3325.34  11.15
1746.0  29439.81  3229.97  10.97
1756.0  28928.41  3083.11  10.66
1766.0  28491.94  2962.09  10.40
1776.0  28263.25  2894.89  10.24
1786.0  27973.79  2823.95  10.09
1796.0  27612.53  2770.44  10.03
1806.0  27286.01  2743.36  10.05
1816.0  26879.26  2704.25  10.06
1826.0  26408.56  2645.55  10.02
1836.0  25765.82  2557.10  9.92
1846.0  25402.19  2433.86  9.58
1856.0  25067.72  2248.18  8.97
1866.0  24868.79  2047.79  8.23
1876.0  24488.38  1695.47  6.92
1886.0  24233.30  1355.61  5.59
1896.0  23683.96  1135.71  4.80
1906.0  22096.75  605.61  2.74
1916.0  21802.32  590.10  2.71
1926.0  21588.87  567.01  2.63
1936.0  21449.43  561.22  2.62
1946.0  21420.23  586.02  2.74
1956.0  21201.75  596.81  2.81
1966.0  21198.12  630.20  2.97
1976.0  21006.67  648.86  3.09
1986.0  20732.55  683.96  3.30
1996.0  20450.49  714.98  3.50
2006.0  20269.19  747.03  3.69
2016.0  19957.87  773.10  3.87
2026.0  19629.85  794.54  4.05
2036.0  19319.95  812.46  4.21
2046.0  19073.35  827.66  4.34
2056.0  18736.02  842.78  4.50
2066.0  18425.00  842.05  4.57
2076.0  18163.31  861.97  4.75
2086.0  17998.96  892.67  4.96
2096.0  17698.67  901.09  5.09
2106.0  17393.37  911.50  5.24
2116.0  17301.34  925.07  5.35
2126.0  17117.10  951.33  5.56
2136.0  16805.93  955.99  5.69
2146.0  16338.81  956.91  5.86
2156.0  16108.43  969.00  6.02
2166.0  15818.08  936.32  5.92
2176.0  15571.16  948.67  6.09
2186.0  15407.91  956.57  6.21
2196.0  15291.27  943.72  6.17
2206.0  15252.10  945.45  6.20
2216.0  15137.72  946.03  6.25
2226.0  14957.58  921.06  6.16
2236.0  14828.49  874.71  5.90
2246.0  14572.63  846.80  5.81
2256.0  14413.52  799.13  5.54
2266.0  14283.01  765.57  5.36
2276.0  14142.85  729.06  5.15
2286.0  14066.30  679.09  4.83
2296.0  13956.39  652.55  4.68
2306.0  13536.25  575.91  4.25
2316.0  13130.37  562.60  4.28
2326.0  13082.91  550.43  4.21
2336.0  13030.52  537.99  4.13
2346.0  12874.44  503.04  3.91
2356.0  12605.38  489.48  3.88
2366.0  12490.11  483.07  3.87
2376.0  12262.88  462.85  3.77
2386.0  12077.58  428.33  3.55
2396.0  11871.57  416.17  3.51
2406.0  11728.43  401.40  3.42
2416.0  11508.86  377.85  3.28
2426.0  11344.58  350.40  3.09
2436.0  11091.32  361.30  3.26
2446.0  10929.32  308.40  2.82
2456.0  10711.77  329.78  3.08
2466.0  10484.26  295.50  2.82
2476.0  10216.57  276.37  2.71
2486.0  9941.47  270.62  2.72
2496.0  9864.73  253.26  2.57
2506.0  10308.86  302.88  2.94
