/*** Spectra Vista SIG Data ***/
name= RB.sig
comm= Averaged Ref/Tar of files: RB1,RB2,RB3
data=
346.4  468.20  87.91  18.78
347.9  473.76  88.27  18.63
349.5  521.04  93.19  17.88
351.1  558.48  92.35  16.54
352.6  585.06  93.19  15.93
354.2  625.05  92.07  14.73
355.7  673.50  100.58  14.93
357.3  724.71  104.95  14.48
358.8  751.43  102.52  13.64
360.4  798.47  104.59  13.10
361.9  821.87  105.40  12.82
363.5  851.78  108.96  12.79
365.1  887.68  107.73  12.14
366.6  918.37  110.48  12.03
368.2  973.68  108.33  11.13
369.7  1008.89  108.83  10.79
371.3  1073.36  110.63  10.31
372.8  1148.72  119.08  10.37
374.4  1191.49  114.37  9.60
375.9  1247.87  118.28  9.48
377.4  1278.23  120.56  9.43
379.0  1330.29  115.85  8.71
380.5  1360.26  115.30  8.48
382.1  1412.49  117.02  8.28
383.6  1460.03  113.78  7.79
385.2  1529.00  110.37  7.22
386.7  1608.26  117.68  7.32
388.3  1679.42  114.50  6.82
389.8  1759.55  127.00  7.22
391.3  1843.67  124.03  6.73
392.9  1897.62  133.90  7.06
394.4  1955.58  136.51  6.98
395.9  2019.02  141.93  7.03
397.5  2131.80  145.57  6.83
399.0  2240.25  148.32  6.62
400.6  2303.62  144.90  6.29
402.1  2342.64  140.35  5.99
403.6  2375.92  131.38  5.53
405.1  2451.81  132.23  5.39
406.7  2542.40  135.00  5.31
408.2  2650.73  144.34  5.45
409.7  2746.24  145.15  5.29
411.3  2843.51  152.69  5.37
412.8  2936.43  154.84  5.27
414.3  3034.90  164.80  5.43
415.8  3152.50  169.33  5.37
417.4  3253.58  174.74  5.37
418.9  3339.60  174.40  5.22
420.4  3424.70  174.14  5.08
421.9  3487.22  178.11  5.11
423.5  3546.87  175.28  4.94
425.0  3613.98  180.40  4.99
426.5  3695.85  179.74  4.86
428.0  3801.23  181.17  4.77
429.5  3926.30  179.07  4.56
431.1  4071.24  188.08  4.62
432.6  4225.66  196.10  4.64
434.1  4373.60  199.69  4.57
435.6  4514.36  204.34  4.53
437.1  4642.95  208.52  4.49
438.6  4769.06  213.79  4.48
440.1  4906.69  220.19  4.49
441.6  5042.30  221.87  4.40
443.1  5179.95  234.09  4.52
444.7  5318.34  237.28  4.46
446.2  5433.01  244.46  4.50
447.7  5551.25  251.13  4.52
449.2  5676.48  254.01  4.47
450.7  5788.64  257.09  4.44
452.2  5916.62  259.90  4.39
453.7  6028.91  262.24  4.35
455.2  6201.73  265.90  4.29
456.7  6390.56  272.92  4.27
458.2  6607.30  281.00  4.25
459.7  6823.25  290.97  4.26
461.2  7031.76  299.58  4.26
462.7  7219.07  305.01  4.23
464.2  7396.86  309.64  4.19
465.7  7583.22  322.68  4.26
467.2  7742.35  331.10  4.28
468.7  7912.00  334.67  4.23
470.2  8015.91  339.52  4.24
471.7  8177.13  350.87  4.29
473.2  8446.52  357.18  4.23
474.6  8688.33  358.25  4.12
476.1  8747.12  356.44  4.07
477.6  8779.39  356.27  4.06
479.1  8829.54  355.82  4.03
480.6  8916.06  356.45  4.00
482.1  9046.91  359.79  3.98
483.6  9204.08  364.34  3.96
485.1  9394.00  372.63  3.97
486.6  9626.34  376.51  3.91
488.0  9867.00  385.67  3.91
489.5  10130.90  393.41  3.88
491.0  10387.73  404.20  3.89
492.5  10649.88  416.02  3.91
494.0  10928.34  423.36  3.87
495.4  11158.95  434.50  3.89
496.9  11406.10  446.22  3.91
498.4  11649.48  459.01  3.94
499.9  11878.23  469.68  3.95
501.4  12101.58  477.43  3.95
502.8  12308.24  491.10  3.99
504.3  12497.40  500.40  4.00
505.8  12681.02  511.95  4.04
507.2  12808.72  517.55  4.04
508.7  12896.48  523.94  4.06
510.2  12964.78  529.86  4.09
511.6  13008.39  534.34  4.11
513.1  13093.74  538.56  4.11
514.6  13195.49  542.42  4.11
516.0  13281.41  548.30  4.13
517.5  13429.99  553.14  4.12
519.0  13603.01  560.38  4.12
520.5  13772.72  566.78  4.12
521.9  13993.28  577.49  4.13
523.4  14243.35  586.54  4.12
524.8  14493.24  596.59  4.12
526.3  14778.04  611.72  4.14
527.8  15074.01  626.65  4.16
529.2  15339.71  640.92  4.18
530.7  15629.94  651.51  4.17
532.1  15903.48  666.55  4.19
533.6  16214.37  678.00  4.18
535.0  16534.98  695.77  4.21
536.5  16856.03  712.66  4.23
538.0  17178.24  726.68  4.23
539.4  17501.02  746.29  4.26
540.9  17879.62  766.51  4.29
542.3  18237.67  786.05  4.31
543.8  18504.51  799.47  4.32
545.2  18600.74  804.55  4.33
546.6  18637.00  810.06  4.35
548.1  18690.38  817.69  4.37
549.5  18745.60  822.65  4.39
551.0  18790.92  829.90  4.42
552.4  18868.34  838.35  4.44
553.9  18922.09  851.56  4.50
555.3  18999.63  862.29  4.54
556.8  19143.87  873.88  4.56
558.2  19276.31  887.85  4.61
559.6  19441.66  906.89  4.66
561.1  19660.88  930.15  4.73
562.5  19883.82  957.01  4.81
564.0  20177.05  983.55  4.87
565.4  20444.07  1013.95  4.96
566.8  20774.24  1048.97  5.05
568.3  21077.79  1086.49  5.15
569.7  21403.31  1129.48  5.28
571.1  21706.83  1171.93  5.40
572.6  22010.94  1217.37  5.53
574.0  22299.75  1263.46  5.67
575.4  22570.31  1311.30  5.81
576.9  22820.49  1367.52  5.99
578.3  23040.88  1421.66  6.17
579.7  23243.15  1479.55  6.37
581.1  23410.31  1540.33  6.58
582.6  23592.46  1600.47  6.78
584.0  23735.52  1664.34  7.01
585.4  23971.18  1741.77  7.27
586.8  24286.87  1822.99  7.51
588.3  24642.54  1912.56  7.76
589.7  24935.04  1999.61  8.02
591.1  25126.37  2082.29  8.29
592.5  25213.30  2158.13  8.56
594.0  25248.06  2228.88  8.83
595.4  25246.58  2295.98  9.09
596.8  25248.80  2368.36  9.38
598.2  25256.70  2435.22  9.64
599.6  25254.00  2509.39  9.94
601.0  25321.45  2587.90  10.22
602.4  25392.58  2663.35  10.49
603.9  25508.50  2742.02  10.75
605.3  25652.08  2824.39  11.01
606.7  25770.60  2900.88  11.26
608.1  26003.60  2986.26  11.48
609.5  26249.20  3071.54  11.70
610.9  26543.12  3161.76  11.91
612.3  26820.62  3250.72  12.12
613.7  27191.20  3346.25  12.31
615.1  27470.34  3424.25  12.47
616.5  27748.85  3506.60  12.64
617.9  28163.94  3607.76  12.81
619.3  28559.37  3720.18  13.03
620.7  29021.55  3841.33  13.24
622.1  29524.34  3948.77  13.37
623.5  30070.32  4034.24  13.42
624.9  30686.25  4120.17  13.43
626.3  31117.56  4182.67  13.44
627.7  30854.43  4148.24  13.44
629.1  30617.27  4141.09  13.53
630.5  30534.25  4197.52  13.75
631.9  30583.88  4281.23  14.00
633.3  30636.73  4352.69  14.21
634.7  30802.72  4414.69  14.33
636.1  30887.16  4426.81  14.33
637.5  30991.21  4462.13  14.40
638.9  31137.59  4502.47  14.46
640.2  31275.86  4494.40  14.37
641.6  31334.94  4495.92  14.35
643.0  31307.82  4506.77  14.40
644.4  31297.86  4515.37  14.43
645.8  31223.60  4502.94  14.42
647.2  31327.01  4513.51  14.41
648.5  31378.61  4521.83  14.41
649.9  31215.99  4511.28  14.45
651.3  31061.55  4507.38  14.51
652.7  30880.50  4488.34  14.53
654.1  30705.72  4338.46  14.13
655.5  30448.41  4151.69  13.64
656.8  30219.54  3969.51  13.14
658.2  30347.48  3852.95  12.70
659.6  30667.01  3767.98  12.29
660.9  30915.41  3682.53  11.91
662.3  31175.28  3584.76  11.50
663.7  31418.10  3487.68  11.10
665.0  31622.76  3393.92  10.73
666.4  31821.65  3312.54  10.41
667.8  32088.83  3250.19  10.13
669.1  32304.87  3189.38  9.87
670.5  32567.66  3156.07  9.69
671.9  32723.64  3121.20  9.54
673.2  32957.22  3117.40  9.46
674.6  33165.65  3125.52  9.42
676.0  33416.99  3157.94  9.45
677.3  33670.84  3222.11  9.57
678.7  33959.63  3313.02  9.76
680.0  34360.72  3441.77  10.02
681.4  34770.40  3630.79  10.44
682.8  35166.95  3880.24  11.03
684.1  35575.02  4216.68  11.85
685.5  35948.61  4626.57  12.87
686.8  36307.14  5125.98  14.12
688.2  36654.12  5700.36  15.55
689.5  36792.82  6328.52  17.20
690.9  36894.22  7015.61  19.02
692.2  37000.50  7748.26  20.94
693.6  37086.31  8515.45  22.96
694.9  37102.94  9274.16  25.00
696.2  37172.03  10033.64  26.99
697.6  37238.58  10772.21  28.93
698.9  37321.68  11500.19  30.81
700.3  37412.04  12192.65  32.59
701.6  37521.51  12863.54  34.28
703.0  37648.39  13494.18  35.84
704.3  37727.46  14054.86  37.25
705.6  37779.39  14589.10  38.62
707.0  37853.11  15080.01  39.84
708.3  37804.36  15511.70  41.03
709.6  37779.31  15902.77  42.09
711.0  37700.05  16235.25  43.06
712.3  37603.29  16550.38  44.01
713.6  37599.66  16858.35  44.84
714.9  37564.50  17139.84  45.63
716.3  37606.65  17439.04  46.37
717.6  37655.10  17716.46  47.05
718.9  37643.31  17932.80  47.64
720.2  37519.65  18065.22  48.15
721.6  37437.79  18207.10  48.63
722.9  37295.06  18329.27  49.15
724.2  37099.21  18408.03  49.62
725.5  36957.59  18508.09  50.08
726.8  36833.83  18580.07  50.44
728.1  36764.75  18662.31  50.76
729.5  36694.32  18731.21  51.05
730.8  36660.60  18796.41  51.27
732.1  36590.42  18845.34  51.50
733.4  36549.03  18909.98  51.74
734.7  36509.02  18948.38  51.90
736.0  36510.50  19019.57  52.09
737.3  36452.29  19062.79  52.30
738.6  36538.42  19173.94  52.48
739.9  36706.85  19339.33  52.69
741.2  36841.35  19467.45  52.84
742.5  37078.82  19675.59  53.06
743.8  37494.19  19971.11  53.26
745.1  38118.44  20381.78  53.47
746.4  38876.11  20822.68  53.56
747.7  39639.96  21238.31  53.58
749.0  40400.48  21620.75  53.52
750.3  40850.46  21807.18  53.38
751.6  40764.46  21752.22  53.36
752.9  40356.61  21581.70  53.48
754.2  39863.99  21408.35  53.70
755.4  39350.05  21225.90  53.94
756.7  39155.03  21194.95  54.13
758.0  39142.09  21275.21  54.35
759.3  39351.46  21460.36  54.54
760.6  39645.76  21704.97  54.75
761.9  39928.94  21938.47  54.94
763.1  40078.15  22076.82  55.08
764.4  40287.45  22230.90  55.18
765.7  40433.25  22343.53  55.26
767.0  40515.07  22433.66  55.37
768.2  40595.52  22521.86  55.48
769.5  40644.33  22583.30  55.56
770.8  40787.04  22694.29  55.64
772.0  40799.41  22737.63  55.73
773.3  40833.29  22798.44  55.83
774.6  40907.98  22873.31  55.91
775.8  40955.53  22914.36  55.95
777.1  40964.33  22934.65  55.99
778.4  40867.87  22915.20  56.07
779.6  40816.98  22924.48  56.16
780.9  40688.00  22907.20  56.30
782.1  40484.72  22847.81  56.44
783.4  40464.32  22868.91  56.52
784.6  40463.12  22894.01  56.58
785.9  40670.74  23098.04  56.79
787.1  41171.80  23429.54  56.91
788.4  41528.97  23589.59  56.80
789.6  41482.13  23416.40  56.45
790.9  41134.16  23110.03  56.18
792.1  40655.28  22888.50  56.30
793.4  40180.32  22669.80  56.42
794.6  39846.60  22494.96  56.45
795.8  39587.54  22358.62  56.48
797.1  39290.10  22232.67  56.59
798.3  39054.26  22151.47  56.72
799.5  38943.25  22113.82  56.78
800.8  38778.22  22044.80  56.85
802.0  38618.88  21969.61  56.89
803.2  38465.20  21886.44  56.90
804.5  38332.71  21813.52  56.91
805.7  38219.65  21736.94  56.87
806.9  38073.35  21677.16  56.94
808.1  37984.05  21642.53  56.98
809.4  37906.28  21616.05  57.02
810.6  37824.15  21589.45  57.08
811.8  37796.29  21610.24  57.18
813.0  37827.58  21651.56  57.24
814.2  37840.50  21705.33  57.36
815.4  37955.24  21760.94  57.33
816.6  38027.91  21777.97  57.27
817.9  38102.35  21788.41  57.18
819.1  38072.96  21745.52  57.12
820.3  37949.69  21665.86  57.09
821.5  37894.61  21619.24  57.05
822.7  37866.54  21586.48  57.01
823.9  37906.28  21577.11  56.92
825.1  37943.15  21581.59  56.88
826.3  38020.73  21585.96  56.77
827.5  38108.05  21593.96  56.67
828.7  38176.32  21585.82  56.54
829.9  38262.68  21584.03  56.41
831.0  38386.63  21632.65  56.35
832.2  38533.16  21673.36  56.25
833.4  38634.36  21714.77  56.21
834.6  38746.88  21781.88  56.22
835.8  38872.58  21838.32  56.18
837.0  39026.76  21920.96  56.17
838.1  39200.00  22038.46  56.22
839.3  39334.99  22113.69  56.22
840.5  39499.16  22213.92  56.24
841.7  39675.29  22335.64  56.30
842.9  39834.34  22490.79  56.46
844.0  40002.80  22595.40  56.48
845.2  40188.33  22718.01  56.53
846.4  40315.24  22810.92  56.58
847.5  40575.08  22947.12  56.55
848.7  40794.29  23048.23  56.50
849.9  41043.27  23144.45  56.39
851.0  41176.72  23168.12  56.27
852.2  41283.01  23197.17  56.19
853.3  41336.03  23178.13  56.07
854.5  41385.60  23189.99  56.03
855.6  41408.01  23192.99  56.01
856.8  41491.09  23241.17  56.01
857.9  41535.42  23239.72  55.95
859.1  41657.80  23334.32  56.01
860.2  41711.76  23362.44  56.01
861.4  41789.90  23402.68  56.00
862.5  41857.52  23442.45  56.01
863.7  41978.22  23480.88  55.94
864.8  42001.40  23512.63  55.98
865.9  42003.19  23503.79  55.96
867.1  42077.89  23521.62  55.90
868.2  42118.25  23520.77  55.84
869.3  42153.63  23501.62  55.75
870.5  42092.46  23481.18  55.78
871.6  42122.53  23471.73  55.72
872.7  42223.14  23537.69  55.75
873.9  42262.83  23519.23  55.65
875.0  42247.20  23489.89  55.60
876.1  42225.11  23475.17  55.60
877.2  42279.84  23475.57  55.52
878.3  42302.12  23441.53  55.41
879.4  42284.06  23437.93  55.43
880.5  42343.92  23409.22  55.28
881.7  42326.05  23369.32  55.21
882.8  42351.34  23335.16  55.10
883.9  42430.09  23294.95  54.90
885.0  42357.32  23206.91  54.79
886.1  42357.47  23122.73  54.59
887.2  42241.92  22982.81  54.41
888.3  42147.85  22855.34  54.23
889.4  42045.32  22751.68  54.11
890.5  41945.29  22651.78  54.00
891.6  41864.40  22601.97  53.99
892.7  41844.69  22545.17  53.88
893.8  41881.85  22562.30  53.87
894.9  41879.31  22551.10  53.85
896.0  41812.69  22478.76  53.76
897.0  41850.92  22433.74  53.60
898.1  41821.61  22403.93  53.57
899.2  41852.54  22371.17  53.45
900.3  41747.94  22309.39  53.44
901.4  41622.41  22211.19  53.36
902.4  41658.53  22183.79  53.25
903.5  41604.82  22115.71  53.16
904.6  41550.72  22070.00  53.12
905.7  41565.54  22031.40  53.00
906.7  41536.49  21994.78  52.95
907.8  41558.34  21977.20  52.88
908.9  41493.73  21873.45  52.72
909.9  41451.58  21818.54  52.64
911.0  41358.23  21750.42  52.59
912.1  41297.17  21655.36  52.44
913.1  41189.72  21563.43  52.35
914.2  41099.85  21448.70  52.19
915.2  41068.89  21398.58  52.10
916.3  41034.15  21326.10  51.97
917.3  40975.74  21234.11  51.82
918.4  40862.80  21127.37  51.70
919.4  40836.29  21014.21  51.46
920.5  40782.84  20952.00  51.37
921.5  40833.45  20848.88  51.06
922.6  40729.18  20742.00  50.93
923.6  40739.49  20677.67  50.76
924.7  40774.75  20595.57  50.51
925.7  40746.72  20503.68  50.32
926.7  40808.40  20385.19  49.95
927.8  40839.01  20263.24  49.62
928.8  40966.59  20238.98  49.40
929.9  41048.46  20156.06  49.10
930.9  41217.18  20138.95  48.86
931.9  41378.61  20168.04  48.74
932.9  41679.25  20163.00  48.38
934.0  41702.58  20079.11  48.15
935.0  41757.18  19972.12  47.83
936.0  41670.71  19855.38  47.65
937.0  41632.50  19723.49  47.38
938.1  41580.55  19589.80  47.11
939.1  41508.45  19476.36  46.92
940.1  41591.64  19377.06  46.59
941.1  41779.29  19383.82  46.40
942.1  41991.60  19339.46  46.06
943.1  42156.63  19311.22  45.81
944.1  42391.18  19294.82  45.52
945.2  42445.20  19179.33  45.19
946.2  42493.04  19086.91  44.92
947.2  42572.63  18971.10  44.56
948.2  42750.54  18905.96  44.22
949.2  42846.38  18786.84  43.85
950.2  42880.60  18662.15  43.52
951.2  42968.52  18565.90  43.21
952.2  43001.40  18409.25  42.81
953.2  43164.71  18342.42  42.49
954.2  43310.48  18260.85  42.16
955.2  43368.34  18117.51  41.78
956.2  43301.73  18011.60  41.60
957.2  43392.87  17893.57  41.24
958.2  43492.10  17859.97  41.06
959.2  43506.45  17788.86  40.89
960.1  43588.22  17737.11  40.69
961.1  43692.83  17737.08  40.59
962.1  43658.44  17696.13  40.53
963.1  43782.00  17687.93  40.40
964.1  43817.42  17676.39  40.34
965.1  43908.74  17683.70  40.27
966.1  44007.38  17676.40  40.17
967.0  44141.86  17681.02  40.05
968.0  44131.86  17688.78  40.08
969.0  44255.20  17696.37  39.99
970.0  44255.36  17713.92  40.03
971.0  44316.83  17732.81  40.01
971.9  44400.90  17719.43  39.91
972.9  44577.14  17729.23  39.77
973.9  44494.78  17705.48  39.79
974.9  44573.29  17656.95  39.61
975.8  44702.44  17646.35  39.48
976.8  44666.28  17666.53  39.55
977.8  44950.93  17700.03  39.38
978.8  44877.90  17742.32  39.53
979.7  45104.10  17772.73  39.40
980.7  45212.81  17883.65  39.55
981.7  45433.99  17935.92  39.48
982.6  45657.51  18122.17  39.69
983.6  46147.45  18223.15  39.49
984.6  46551.05  18403.06  39.53
985.5  47031.84  18757.73  39.88
986.5  47664.14  18886.49  39.62
987.5  48852.12  19247.55  39.40
988.4  49722.20  19504.76  39.23
989.4  51183.38  19874.13  38.83
990.4  52549.20  20494.19  39.00
991.3  54023.93  20836.99  38.57
992.3  54777.10  21336.98  38.95
993.2  55874.36  21571.84  38.61
994.2  57686.85  21657.87  37.54
995.2  57633.14  21971.47  38.12
996.1  59292.71  21801.79  36.77
997.1  59931.56  22148.62  36.96
998.0  60640.20  21515.28  35.48
999.0  59258.53  21342.71  36.02
1000.0  60377.42  21150.85  35.03
1000.9  59810.48  21668.18  36.23
1001.9  59598.95  21244.80  35.65
1002.8  60212.52  21018.63  34.91
1003.8  59788.51  21296.93  35.62
1004.8  59326.80  20810.02  35.08
961.5  55398.21  20303.01  36.65
965.5  54418.85  20158.29  37.04
969.5  52458.23  19892.03  37.92
973.4  50487.36  19398.57  38.42
977.4  48611.32  18773.14  38.62
981.4  47578.80  18480.54  38.84
985.3  47203.20  18321.83  38.81
989.3  47137.31  18302.73  38.83
993.3  47133.16  18347.70  38.93
997.2  47029.21  18366.01  39.05
1001.2  46955.35  18467.50  39.33
1005.2  46914.32  18651.27  39.76
1009.1  47038.13  18927.01  40.24
1013.1  47236.75  19256.84  40.77
1017.1  47375.30  19570.61  41.31
1021.0  47429.61  19800.19  41.75
1025.0  47461.87  20027.36  42.20
1029.0  47354.18  20205.17  42.67
1032.9  47271.77  20406.79  43.17
1036.9  47308.70  20681.74  43.72
1040.9  47476.08  21001.10  44.24
1044.8  47747.63  21349.35  44.71
1048.8  47970.59  21658.64  45.15
1052.7  48104.60  21915.71  45.56
1056.7  48183.46  22100.88  45.87
1060.7  48250.82  22241.26  46.10
1064.6  48272.17  22356.62  46.31
1068.6  48190.54  22378.79  46.44
1072.5  48116.11  22364.62  46.48
1076.5  48076.67  22329.33  46.45
1080.4  48048.88  22267.36  46.34
1084.4  48150.59  22217.33  46.14
1088.3  48279.53  22137.24  45.85
1092.3  48252.92  21980.91  45.55
1096.2  48221.83  21806.41  45.22
1100.2  48245.69  21650.30  44.88
1104.1  48124.97  21425.26  44.52
1108.1  48059.38  21223.19  44.16
1112.0  47955.87  20974.19  43.74
1116.0  47754.46  20633.86  43.21
1119.9  47569.76  20248.77  42.57
1123.9  47623.80  19881.57  41.75
1127.8  47592.96  19351.04  40.66
1131.8  47556.42  18666.46  39.25
1135.7  47568.82  17890.20  37.61
1139.6  47554.30  17044.34  35.84
1143.6  47510.71  16236.31  34.17
1147.5  47481.98  15573.78  32.80
1151.4  47337.52  15029.55  31.75
1155.4  47322.86  14686.45  31.03
1159.3  47329.81  14478.55  30.59
1163.2  47159.49  14285.43  30.29
1167.2  47113.86  14177.70  30.09
1171.1  47117.13  14099.96  29.93
1175.0  47022.16  14007.61  29.79
1179.0  46962.63  13929.12  29.66
1182.9  47045.30  13887.38  29.52
1186.8  47019.62  13822.68  29.40
1190.7  46784.64  13693.09  29.27
1194.7  46508.35  13569.57  29.18
1198.6  46264.68  13486.94  29.15
1202.5  46100.54  13455.63  29.19
1206.4  45962.62  13454.04  29.27
1210.3  45829.98  13460.34  29.37
1214.2  45707.13  13482.10  29.50
1218.2  45554.16  13503.19  29.64
1222.1  45384.95  13536.67  29.83
1226.0  45257.55  13593.29  30.04
1229.9  45156.00  13645.38  30.22
1233.8  45033.17  13677.25  30.37
1237.7  44950.68  13717.27  30.52
1241.6  44841.64  13745.91  30.65
1245.5  44683.61  13743.54  30.76
1249.4  44538.65  13745.05  30.86
1253.3  44401.40  13743.50  30.95
1257.2  44324.52  13755.59  31.03
1261.1  44209.48  13748.94  31.10
1265.0  44086.55  13724.06  31.13
1268.9  43910.05  13659.31  31.11
1272.8  43969.80  13642.00  31.03
1276.7  44155.69  13661.75  30.94
1280.6  44249.88  13634.00  30.81
1284.5  44188.89  13520.24  30.60
1288.4  44167.03  13409.24  30.36
1292.3  44060.50  13255.92  30.09
1296.2  43934.23  13068.81  29.75
1300.1  43787.98  12849.04  29.34
1303.9  43564.57  12581.56  28.88
1307.8  43339.22  12300.27  28.38
1311.7  43109.06  11998.92  27.83
1315.6  42877.90  11680.12  27.24
1319.5  42633.84  11343.07  26.61
1323.3  42417.44  11000.47  25.93
1327.2  42218.70  10653.97  25.24
1331.1  42002.86  10300.16  24.52
1335.0  41739.72  9947.62  23.83
1338.8  41543.11  9630.17  23.18
1342.7  41389.31  9329.00  22.54
1346.5  41042.00  8998.44  21.92
1350.4  40741.74  8703.81  21.36
1354.3  40332.24  8393.38  20.81
1358.1  39895.31  8088.41  20.27
1362.0  39644.33  7842.75  19.78
1365.8  39567.12  7626.75  19.28
1369.7  39683.68  7412.15  18.68
1373.5  39615.26  7093.01  17.90
1377.4  39354.79  6647.35  16.89
1381.2  39167.92  6147.99  15.70
1385.1  39160.09  5672.84  14.49
1389.0  39060.88  5181.27  13.26
1392.8  38834.72  4685.73  12.07
1396.6  38680.88  4248.55  10.98
1400.5  38476.57  3864.38  10.04
1404.3  38299.58  3559.93  9.29
1408.2  38263.03  3333.30  8.71
1412.0  38218.70  3148.85  8.24
1415.8  38249.29  3018.76  7.89
1419.6  38208.11  2911.41  7.62
1423.5  38172.20  2829.93  7.41
1427.3  38125.77  2774.42  7.28
1431.1  38099.78  2734.20  7.18
1434.9  38010.73  2703.95  7.11
1438.8  37949.80  2680.77  7.06
1442.6  37913.52  2666.51  7.03
1446.4  37795.09  2649.22  7.01
1450.2  37700.99  2640.40  7.00
1454.0  37583.52  2631.88  7.00
1457.8  37547.69  2637.44  7.02
1461.6  37527.24  2655.74  7.08
1465.4  37404.28  2673.96  7.15
1469.2  37216.73  2692.84  7.24
1473.0  37080.95  2723.29  7.34
1476.8  37019.78  2779.16  7.51
1480.7  36949.43  2840.39  7.69
1484.4  36826.56  2905.48  7.89
1488.2  36723.96  2988.32  8.14
1492.0  36584.11  3066.87  8.38
1495.8  36452.33  3142.54  8.62
1499.6  36350.05  3206.55  8.82
1503.4  36216.75  3237.52  8.94
1507.2  36087.28  3251.52  9.01
1510.9  35929.91  3270.83  9.10
1514.7  35749.31  3314.91  9.27
1518.5  35615.65  3371.43  9.47
1522.3  35466.30  3412.94  9.62
1526.0  35355.47  3461.97  9.79
1529.8  35294.61  3540.35  10.03
1533.6  35159.29  3615.27  10.28
1537.3  35020.99  3690.34  10.54
1541.1  34889.16  3765.50  10.79
1544.8  34754.40  3825.60  11.01
1548.6  34607.98  3884.06  11.22
1552.4  34514.76  3942.93  11.42
1556.1  34455.77  3983.73  11.56
1559.9  34373.05  4013.94  11.68
1563.6  34243.93  4062.89  11.86
1567.3  34122.03  4123.55  12.08
1571.1  33904.82  4165.47  12.29
1574.8  33749.79  4216.24  12.49
1578.6  33637.37  4264.97  12.68
1582.3  33496.17  4301.79  12.84
1586.0  33359.51  4327.98  12.97
1589.8  33217.24  4350.85  13.10
1593.5  33051.52  4373.24  13.23
1597.2  32917.71  4400.23  13.37
1600.9  32767.31  4423.93  13.50
1604.7  32613.52  4443.95  13.63
1608.4  32493.03  4474.36  13.77
1612.1  32320.35  4493.61  13.90
1615.8  32161.00  4514.46  14.04
1619.5  32072.28  4547.67  14.18
1623.2  31915.49  4562.46  14.30
1626.9  31725.78  4571.12  14.41
1630.6  31537.44  4586.71  14.54
1634.3  31397.73  4595.01  14.63
1638.0  31241.74  4588.94  14.69
1641.7  31050.65  4581.42  14.75
1645.4  30870.63  4572.54  14.81
1649.1  30683.95  4550.89  14.83
1652.8  30504.58  4527.62  14.84
1656.4  30322.32  4503.22  14.85
1660.1  30158.02  4483.07  14.87
1663.8  29966.42  4460.05  14.88
1667.5  29809.99  4437.64  14.89
1671.1  29676.54  4418.16  14.89
1674.8  29472.79  4382.15  14.87
1678.5  29413.48  4362.40  14.83
1682.1  29419.35  4346.46  14.77
1685.8  29417.21  4325.60  14.70
1689.5  29310.65  4292.00  14.64
1693.1  29167.59  4251.78  14.58
1696.8  29020.13  4207.71  14.50
1700.4  28874.60  4158.97  14.40
1704.0  28754.23  4107.06  14.28
1707.7  28493.62  4030.95  14.15
1711.3  28200.13  3951.21  14.01
1715.0  27991.44  3885.38  13.88
1718.6  27822.35  3820.82  13.73
1722.2  27677.55  3762.90  13.60
1725.9  27527.50  3708.78  13.47
1729.5  27386.37  3656.49  13.35
1733.1  27262.24  3620.89  13.28
1736.7  27144.69  3596.90  13.25
1740.3  26982.07  3555.78  13.18
1744.0  26899.89  3514.93  13.07
1747.5  26760.07  3462.17  12.94
1751.2  26551.35  3396.36  12.79
1754.8  26397.18  3337.41  12.64
1758.4  26262.14  3282.77  12.50
1762.0  26085.49  3229.13  12.38
1765.5  25956.49  3190.11  12.29
1769.1  25915.20  3172.80  12.24
1772.7  25841.75  3152.14  12.20
1776.3  25724.16  3120.52  12.13
1779.9  25608.69  3091.97  12.07
1783.5  25553.92  3074.37  12.03
1787.0  25434.82  3048.78  11.99
1790.6  25293.30  3027.43  11.97
1794.2  25193.03  3014.62  11.97
1797.8  25095.48  3001.36  11.96
1801.3  25012.46  2990.59  11.96
1804.9  24871.88  2972.38  11.95
1808.4  24792.34  2969.71  11.98
1812.0  24660.35  2955.73  11.99
1815.5  24519.60  2935.68  11.97
1819.1  24324.68  2913.05  11.98
1822.6  24164.48  2893.70  11.98
1826.2  24042.90  2884.13  12.00
1829.7  23859.90  2859.90  11.99
1833.2  23612.46  2823.58  11.96
1836.8  23400.20  2784.76  11.90
1840.3  23257.80  2755.02  11.85
1843.8  23131.92  2740.57  11.85
1847.3  23013.03  2728.99  11.86
1850.8  22865.47  2706.82  11.84
1854.3  22692.74  2655.21  11.70
1857.8  22594.00  2586.13  11.45
1861.3  22615.25  2483.75  10.98
1864.8  22605.64  2345.13  10.37
1868.3  22468.36  2171.67  9.67
1871.8  22341.12  1999.36  8.95
1875.3  22323.21  1846.09  8.27
1878.8  22320.32  1709.21  7.66
1882.3  22237.89  1597.93  7.19
1885.8  22045.10  1472.35  6.68
1889.3  21861.76  1354.02  6.19
1892.7  21710.01  1292.68  5.95
1896.2  21503.16  1250.89  5.82
1899.7  21232.37  1226.90  5.78
1903.1  21059.81  1233.23  5.86
1906.6  21101.81  1278.41  6.06
1910.0  21348.35  1403.76  6.58
1913.5  21771.66  1559.10  7.16
1917.0  22339.63  1846.25  8.26
1920.4  22881.38  2157.17  9.43
1923.8  23136.14  2239.57  9.68
1871.2  20260.60  1365.97  6.74
1873.9  20445.79  1310.08  6.41
1876.7  20658.97  1224.83  5.93
1879.5  20770.50  1106.63  5.33
1882.3  20488.21  1040.50  5.08
1885.1  20498.36  985.55  4.81
1887.8  20542.45  868.65  4.23
1890.6  20318.11  834.24  4.11
1893.4  20320.67  789.55  3.89
1896.2  20203.65  722.05  3.57
1898.9  20201.38  704.43  3.49
1901.7  20074.51  685.81  3.42
1904.5  20223.67  668.30  3.30
1907.2  20168.50  660.25  3.27
1910.0  20030.00  649.94  3.24
1912.7  20048.69  643.20  3.21
1915.5  19979.54  642.28  3.21
1918.2  19877.64  638.14  3.21
1921.0  19705.09  621.19  3.15
1923.7  19733.20  611.42  3.10
1926.5  19715.86  613.34  3.11
1929.2  19701.76  625.30  3.17
1932.0  19674.16  622.52  3.16
1934.7  19635.47  617.00  3.14
1937.4  19518.79  608.96  3.12
1940.2  19475.71  625.93  3.21
1942.9  19573.26  639.45  3.27
1945.6  19572.62  631.18  3.22
1948.3  19494.00  628.74  3.23
1951.1  19465.67  643.14  3.30
1953.8  19476.00  644.00  3.31
1956.5  19368.67  643.93  3.32
1959.2  19423.04  652.82  3.36
1961.9  19438.54  651.63  3.35
1964.6  19331.55  669.38  3.46
1967.3  19375.30  669.48  3.46
1970.0  19228.16  656.13  3.41
1972.8  19159.08  670.70  3.50
1975.5  19219.42  689.72  3.59
1978.2  19120.16  693.01  3.62
1980.9  19002.89  696.69  3.67
1983.5  18950.70  704.79  3.72
1986.2  18944.10  713.92  3.77
1988.9  18909.18  730.41  3.86
1991.6  18787.78  733.82  3.91
1994.3  18678.85  716.31  3.83
1997.0  18669.58  741.02  3.97
1999.7  18631.37  760.04  4.08
2002.3  18617.79  755.61  4.06
2005.0  18540.12  774.78  4.18
2007.7  18469.93  773.05  4.19
2010.4  18400.48  765.14  4.16
2013.0  18316.11  780.48  4.26
2015.7  18226.45  787.14  4.32
2018.4  18129.14  781.97  4.31
2021.0  18062.50  799.00  4.42
2023.7  17946.51  801.83  4.47
2026.4  17902.73  796.18  4.45
2029.0  17806.29  805.07  4.52
2031.7  17677.40  797.12  4.51
2034.3  17722.47  808.38  4.56
2037.0  17610.64  821.05  4.66
2039.6  17527.07  813.05  4.64
2042.3  17481.88  815.36  4.66
2044.9  17393.81  831.22  4.78
2047.5  17348.93  835.89  4.82
2050.2  17253.60  831.60  4.82
2052.8  17214.40  835.33  4.85
2055.4  17090.17  829.29  4.85
2058.1  16973.60  825.07  4.86
2060.7  16918.14  840.36  4.97
2063.3  16842.61  850.86  5.05
2065.9  16794.67  840.29  5.00
2068.6  16710.92  845.88  5.06
2071.2  16664.67  857.46  5.15
2073.8  16591.32  846.96  5.10
2076.4  16536.88  854.16  5.17
2079.0  16525.61  854.24  5.17
2081.6  16519.89  859.00  5.20
2084.2  16487.00  878.48  5.33
2086.8  16353.42  876.78  5.36
2089.4  16268.28  871.80  5.36
2092.1  16209.50  882.11  5.44
2094.7  16113.80  871.99  5.41
2097.2  16087.67  873.61  5.43
2099.8  16089.36  894.80  5.56
2102.4  15953.94  892.81  5.60
2105.0  15826.05  884.45  5.59
2107.6  15774.07  888.68  5.63
2110.2  15742.83  895.13  5.69
2112.8  15734.02  896.22  5.70
2115.3  15735.22  899.68  5.72
2117.9  15738.64  912.09  5.80
2120.5  15682.70  915.31  5.84
2123.1  15604.88  918.45  5.89
2125.6  15567.02  927.31  5.96
2128.2  15487.92  914.10  5.90
2130.8  15394.28  927.23  6.02
2133.3  15347.20  939.65  6.12
2135.9  15264.31  910.94  5.97
2138.4  15119.35  914.45  6.05
2141.0  15032.51  928.51  6.18
2143.6  14998.41  922.50  6.15
2146.1  14847.40  916.76  6.17
2148.7  14686.27  924.07  6.29
2151.2  14704.80  923.02  6.28
2153.8  14713.72  933.04  6.34
2156.3  14589.47  933.25  6.40
2158.8  14533.35  914.55  6.29
2161.4  14517.59  932.66  6.42
2163.9  14426.20  934.62  6.48
2166.4  14354.62  916.57  6.39
2169.0  14310.27  931.35  6.51
2171.5  14227.48  929.38  6.53
2174.0  14143.15  919.28  6.50
2176.5  14124.76  934.87  6.62
2179.1  14082.55  940.65  6.68
2181.6  13967.33  920.61  6.59
2184.1  13937.00  919.89  6.60
2186.6  13993.83  932.09  6.66
2189.1  13896.09  918.06  6.61
2191.6  13840.87  921.20  6.66
2194.1  13877.92  943.35  6.80
2196.6  13844.81  922.76  6.67
2199.2  13897.52  918.60  6.61
2201.7  13871.80  931.23  6.71
2204.1  13802.39  933.36  6.76
2206.6  13786.08  941.20  6.83
2209.1  13743.34  928.59  6.76
2211.6  13738.26  935.17  6.81
2214.1  13693.60  941.55  6.88
2216.6  13643.61  917.93  6.73
2219.1  13655.01  912.87  6.69
2221.6  13597.41  926.29  6.81
2224.0  13563.60  919.48  6.78
2226.5  13534.39  899.25  6.64
2229.0  13551.73  903.45  6.67
2231.5  13416.49  905.16  6.75
2233.9  13376.81  887.68  6.64
2236.4  13409.64  887.80  6.62
2238.9  13341.63  870.59  6.53
2241.3  13300.17  849.89  6.39
2243.8  13261.31  858.95  6.48
2246.2  13153.53  833.49  6.34
2248.7  13089.53  808.62  6.18
2251.2  13067.33  819.91  6.27
2253.6  13017.60  816.64  6.27
2256.1  12979.20  784.64  6.05
2258.5  12980.99  786.26  6.06
2260.9  12912.45  783.62  6.07
2263.4  12850.74  765.11  5.95
2265.8  12840.17  770.62  6.00
2268.3  12768.77  747.86  5.86
2270.7  12812.36  740.80  5.78
2273.1  12778.22  751.66  5.88
2275.6  12710.40  733.44  5.77
2278.0  12729.12  723.83  5.69
2280.4  12680.26  731.19  5.77
2282.8  12544.20  709.81  5.66
2285.3  12570.98  686.94  5.46
2287.7  12679.54  702.90  5.54
2290.1  12579.51  698.42  5.55
2292.5  12520.09  668.01  5.34
2294.9  12538.64  669.15  5.34
2297.3  12458.25  652.58  5.24
2299.7  12334.59  621.21  5.04
2302.1  12311.40  631.15  5.13
2304.5  12214.72  602.37  4.93
2306.9  12089.28  584.08  4.83
2309.3  11994.02  603.43  5.03
2311.7  11939.85  590.06  4.94
2314.1  11791.37  582.87  4.94
2316.5  11721.50  598.88  5.11
2318.9  11765.88  591.25  5.03
2321.3  11730.50  574.44  4.90
2323.7  11744.39  597.67  5.09
2326.1  11719.24  596.44  5.09
2328.4  11761.55  583.13  4.96
2330.8  11807.83  586.23  4.96
2333.2  11712.54  569.70  4.86
2335.6  11662.03  556.32  4.77
2337.9  11681.16  573.14  4.91
2340.3  11629.38  558.38  4.80
2342.7  11548.22  519.09  4.49
2345.0  11508.47  550.65  4.78
2347.4  11492.00  549.67  4.78
2349.7  11315.65  514.02  4.54
2352.1  11286.89  528.90  4.69
2354.4  11296.02  537.29  4.76
2356.8  11214.70  509.37  4.54
2359.2  11154.00  527.22  4.73
2361.5  11109.05  520.69  4.69
2363.8  11141.66  494.79  4.44
2366.2  11165.73  507.53  4.55
2368.5  11089.40  482.08  4.35
2370.9  11067.03  472.68  4.27
2373.2  11030.32  502.13  4.55
2375.5  10914.30  500.77  4.59
2377.9  10876.18  477.11  4.39
2380.2  10876.88  481.08  4.42
2382.5  10821.23  470.22  4.35
2384.8  10769.44  453.17  4.21
2387.2  10736.28  459.46  4.28
2389.5  10704.02  459.58  4.29
2391.8  10661.73  446.81  4.19
2394.1  10613.91  454.24  4.28
2396.4  10610.47  441.90  4.16
2398.7  10654.34  423.84  3.98
2401.0  10513.07  459.89  4.37
2403.3  10428.12  444.88  4.27
2405.6  10456.51  419.86  4.02
2407.9  10375.71  427.52  4.12
2410.2  10317.44  417.78  4.05
2412.5  10224.31  408.23  3.99
2414.8  10187.84  421.07  4.13
2417.1  10204.62  414.66  4.06
2419.4  10195.97  390.75  3.83
2421.7  10103.31  425.79  4.21
2424.0  10048.90  406.82  4.05
2426.2  10074.05  378.07  3.75
2428.5  10032.46  400.22  3.99
2430.8  10006.20  392.40  3.92
2433.1  9945.94  372.47  3.74
2435.4  9886.37  391.65  3.96
2437.6  9830.42  382.33  3.89
2439.9  9708.34  321.93  3.32
2442.2  9709.99  335.61  3.46
2444.4  9752.18  361.83  3.71
2446.7  9688.56  330.93  3.42
2448.9  9658.24  343.46  3.56
2451.2  9631.36  349.65  3.63
2453.4  9564.32  349.55  3.65
2455.7  9566.46  368.95  3.86
2457.9  9468.86  362.23  3.83
2460.2  9395.46  337.02  3.59
2462.4  9422.40  347.36  3.69
2464.7  9348.95  342.75  3.67
2466.9  9251.22  323.14  3.49
2469.2  9249.34  332.73  3.60
2471.4  9151.61  321.69  3.52
2473.6  9078.42  303.51  3.34
2475.9  9042.40  300.28  3.32
2478.1  8956.32  280.10  3.13
2480.3  8952.70  283.11  3.16
2482.5  8971.16  312.14  3.48
2484.8  8832.66  310.69  3.52
2487.0  8762.09  301.21  3.44
2489.2  8850.00  304.05  3.44
2491.4  8753.22  289.47  3.31
2493.6  8669.20  287.41  3.32
2495.8  8662.66  303.54  3.50
2498.0  8674.13  254.01  2.93
2500.2  8694.60  249.94  2.87
2502.4  8942.16  293.04  3.28
2504.6  9089.52  313.00  3.44
2506.8  9176.65  334.47  3.64
