/*** Spectra Vista SIG Data ***/
name= RB.sig
comm= Resampled spectral data SIG file reprocesed for matching/overlap;Averaged Ref/Tar of files: RB1,RB2,RB3
data=
346.0  468.20  87.91  18.78
356.0  683.10  101.40  14.84
366.0  906.09  109.38  12.07
376.0  1249.89  118.43  9.48
386.0  1571.27  114.27  7.27
396.0  2026.07  142.16  7.02
406.0  2502.77  133.79  5.35
416.0  3165.14  170.01  5.37
426.0  3668.56  179.96  4.91
436.0  4548.65  205.45  4.52
446.0  5417.72  243.50  4.49
456.0  6302.44  269.64  4.28
466.0  7615.04  324.36  4.26
476.0  8743.20  356.56  4.08
486.0  9533.40  374.96  3.93
496.0  11257.81  439.19  3.90
506.0  12699.26  512.75  4.04
516.0  13281.41  548.30  4.13
526.0  14721.08  608.69  4.13
536.0  16749.01  707.03  4.22
546.0  18621.46  807.70  4.34
556.0  19066.94  867.70  4.55
566.0  20585.57  1028.96  5.00
576.0  22670.38  1333.79  5.88
586.0  24106.47  1776.58  7.37
596.0  25247.53  2327.00  9.22
606.0  25711.34  2862.64  11.13
616.0  27649.38  3477.19  12.58
626.0  31025.14  4169.28  13.44
636.0  30881.13  4425.94  14.33
646.0  31238.37  4504.45  14.42
656.0  30360.38  4081.62  13.44
666.0  31764.82  3335.79  10.50
676.0  33416.99  3157.94  9.45
686.0  36086.51  4818.65  13.35
696.0  37161.40  9916.79  26.69
706.0  37800.45  14729.37  38.97
716.0  37597.62  17374.93  46.21
726.0  36909.99  18535.77  50.22
736.0  36510.50  19019.57  52.09
746.0  38642.98  20687.02  53.53
756.0  39260.04  21211.62  54.03
766.0  40452.13  22364.33  55.29
776.0  40956.88  22917.48  55.96
786.0  40712.49  23125.66  56.80
796.0  39541.78  22339.24  56.50
806.0  38183.08  21722.00  56.89
816.0  37991.58  21769.46  57.30
826.0  38001.34  21584.87  56.80
836.0  38898.28  21852.09  56.18
846.0  40272.93  22779.95  56.56
856.0  41435.70  23209.05  56.01
866.0  42009.41  23505.28  55.95
876.0  42227.12  23476.51  55.60
886.0  42357.46  23130.38  54.61
896.0  41812.69  22478.76  53.76
906.0  41556.83  22020.41  52.99
916.0  41043.62  21345.87  52.01
926.0  40765.22  20468.13  50.21
936.0  41670.71  19855.38  47.65
946.0  42483.47  19105.40  44.97
956.0  43315.05  18032.78  41.63
966.0  43997.52  17677.13  40.18
976.0  44695.21  17650.39  39.49
986.0  47191.67  18318.49  38.82
996.0  47061.19  18360.38  39.01
1006.0  46939.72  18707.83  39.86
1016.0  47337.20  19484.33  41.16
1026.0  47434.95  20071.81  42.31
1036.0  47300.39  20619.87  43.59
1046.0  47814.52  21442.13  44.84
1056.0  48169.66  22068.48  45.81
1066.0  48243.60  22364.38  46.36
1076.0  48081.60  22333.74  46.45
1086.0  48203.49  22184.47  46.02
1096.0  48223.42  21815.36  45.24
1106.0  48093.81  21329.28  44.35
1116.0  47754.46  20633.86  43.21
1126.0  47607.19  19595.91  41.16
1136.0  47567.70  17825.12  37.47
1146.0  47493.03  15828.60  33.33
1156.0  47323.93  14654.47  30.97
1166.0  47127.55  14210.02  30.15
1176.0  47007.28  13987.99  29.76
1186.0  47024.89  13835.95  29.42
1196.0  46427.12  13542.03  29.17
1206.0  45976.77  13454.20  29.26
1216.0  45638.29  13491.59  29.56
1226.0  45257.55  13593.29  30.04
1236.0  44986.64  13699.83  30.45
1246.0  44665.03  13743.73  30.77
1256.0  44348.18  13751.87  31.01
1266.0  44041.29  13707.46  31.12
1276.0  44122.33  13658.21  30.96
1286.0  44180.48  13477.55  30.51
1296.0  43940.70  13078.40  29.76
1306.0  43443.23  12430.10  28.61
1316.0  42852.87  11645.55  27.18
1326.0  42279.85  10760.58  25.45
1336.0  41687.98  9864.08  23.66
1346.0  41087.70  9041.93  22.01
1356.0  40136.77  8256.95  20.57
1366.0  39573.10  7615.75  19.24
1376.0  39448.29  6807.33  17.26
1386.0  39137.19  5559.40  14.20
1396.0  38705.17  4317.58  11.16
1406.0  38283.65  3461.14  9.04
1416.0  38247.12  3013.11  7.88
1426.0  38141.65  2793.41  7.32
1436.0  37993.55  2697.41  7.10
1446.0  37807.56  2651.04  7.01
1456.0  37564.66  2634.81  7.01
1466.0  37374.67  2676.94  7.16
1476.0  37032.66  2767.40  7.47
1486.0  36783.36  2940.36  7.99
1496.0  36446.95  3145.91  8.63
1506.0  36128.16  3247.10  8.99
1516.0  35703.58  3334.25  9.34
1526.0  35355.47  3461.97  9.79
1536.0  35069.58  3663.96  10.45
1546.0  34708.16  3844.06  11.08
1556.0  34457.36  3982.63  11.56
1566.0  34164.86  4102.24  12.01
1576.0  33714.29  4231.63  12.55
1586.0  33359.51  4327.98  12.97
1596.0  32961.11  4391.48  13.32
1606.0  32571.18  4454.63  13.68
1616.0  32156.21  4516.25  14.04
1626.0  31771.93  4569.01  14.38
1636.0  31326.06  4592.22  14.66
1646.0  30840.36  4569.03  14.82
1656.0  30342.57  4505.93  14.85
1666.0  29873.41  4446.73  14.89
1676.0  29453.55  4375.74  14.86
1686.0  29411.45  4323.78  14.70
1696.0  29052.01  4217.24  14.52
1706.0  28613.36  4065.92  14.21
1716.0  27944.47  3867.45  13.84
1726.0  27523.58  3707.33  13.47
1736.0  27167.55  3601.56  13.26
1746.0  26819.99  3484.78  12.99
1756.0  26352.17  3319.20  12.60
1766.0  25950.76  3187.71  12.28
1776.0  25733.96  3123.16  12.14
1786.0  25468.85  3056.09  12.00
1796.0  25144.26  3007.99  11.96
1806.0  24846.88  2971.54  11.96
1816.0  24492.53  2932.54  11.97
1826.0  24049.65  2884.66  11.99
1836.0  23447.37  2793.39  11.91
1846.0  23057.19  2733.29  11.85
1856.0  22644.78  2621.66  11.58
1866.0  22558.57  2285.66  10.13
1876.0  22322.63  1818.72  8.15
1886.0  22034.63  1465.59  6.65
1896.0  21514.98  1253.28  5.83
1906.0  20193.02  663.83  3.29
1916.0  19960.67  641.51  3.21
1926.0  19718.96  613.00  3.11
1936.0  19579.29  613.13  3.13
1946.0  19560.97  630.82  3.22
1956.0  19388.55  643.94  3.32
1966.0  19354.23  669.43  3.46
1976.0  19201.04  690.33  3.60
1986.0  18944.59  713.24  3.76
1996.0  18673.01  731.87  3.92
2006.0  18514.12  774.14  4.18
2016.0  18215.64  786.57  4.32
2026.0  17909.22  797.02  4.45
2036.0  17652.06  816.36  4.62
2046.0  17374.82  833.20  4.80
2056.0  17064.26  828.35  4.85
2066.0  16791.57  840.50  5.01
2076.0  16545.25  853.05  5.16
2086.0  16394.52  877.30  5.35
2096.0  16100.21  872.83  5.42
2106.0  15806.06  886.08  5.61
2116.0  15736.14  903.02  5.74
2126.0  15554.85  925.28  5.95
2136.0  15258.51  911.08  5.97
2146.0  14853.45  916.99  6.17
2156.0  14604.38  933.22  6.39
2166.0  14366.07  919.46  6.40
2176.0  14128.44  931.75  6.59
2186.0  13980.19  929.16  6.65
2196.0  13852.76  927.70  6.70
2206.0  13790.00  939.32  6.81
2216.0  13655.61  923.60  6.76
2226.0  13540.23  903.30  6.67
2236.0  13404.39  887.78  6.62
2246.0  13162.51  835.61  6.35
2256.0  12980.74  785.92  6.05
2266.0  12834.46  768.80  5.99
2276.0  12713.52  731.84  5.76
2286.0  12602.64  691.59  5.49
2296.0  12501.79  661.56  5.29
2306.0  12136.32  590.94  4.87
2316.0  11736.06  595.54  5.07
2326.0  11720.29  596.49  5.09
2336.0  11665.36  559.24  4.79
2346.0  11501.61  550.24  4.78
2356.0  11241.81  518.68  4.61
2366.0  11163.72  506.47  4.54
2376.0  10906.36  495.84  4.55
2386.0  10752.86  456.32  4.24
2396.0  10611.07  444.05  4.18
2406.0  10442.46  421.19  4.03
2416.0  10196.59  417.73  4.10
2426.0  10071.76  380.68  3.78
2436.0  9871.11  389.11  3.94
2446.0  9707.92  340.33  3.51
2456.0  9553.15  368.03  3.85
2466.0  9291.20  331.16  3.56
2476.0  9038.48  299.36  3.31
2486.0  8794.17  305.52  3.47
2496.0  8663.70  299.04  3.45
2506.0  9144.96  326.66  3.57
