/*** Spectra Vista SIG Data ***/
name= RB.sig
comm= Averaged Ref/Tar of files: RD6B1,RD6B2,RD6B3,RD6B4
data=
346.4  329.65  52.40  15.89
347.9  354.54  54.44  15.35
349.5  382.20  53.66  14.04
351.1  406.38  56.47  13.90
352.6  439.59  56.77  12.91
354.2  467.97  59.07  12.62
355.7  509.34  62.97  12.36
357.3  547.00  67.27  12.30
358.8  562.70  65.36  11.62
360.4  605.01  66.31  10.96
361.9  630.34  68.26  10.83
363.5  656.15  67.69  10.32
365.1  677.03  70.39  10.40
366.6  712.95  69.91  9.81
368.2  755.44  72.02  9.53
369.7  799.93  70.53  8.82
371.3  856.05  72.60  8.48
372.8  899.72  74.70  8.30
374.4  943.68  78.10  8.28
375.9  974.80  77.62  7.96
377.4  1005.84  76.92  7.65
379.0  1043.07  78.13  7.49
380.5  1073.28  78.32  7.30
382.1  1106.65  76.69  6.93
383.6  1145.34  77.26  6.75
385.2  1198.32  77.69  6.48
386.7  1246.81  78.38  6.29
388.3  1313.92  81.80  6.23
389.8  1372.51  82.22  5.99
391.3  1425.92  85.50  6.00
392.9  1470.87  85.35  5.80
394.4  1508.24  89.62  5.94
395.9  1561.37  94.04  6.02
397.5  1648.92  101.91  6.18
399.0  1716.50  101.51  5.91
400.6  1769.46  98.77  5.58
402.1  1787.30  94.95  5.31
403.6  1820.90  93.98  5.16
405.1  1869.71  92.89  4.97
406.7  1932.56  94.97  4.91
408.2  2004.20  96.45  4.81
409.7  2068.08  99.23  4.80
411.3  2134.93  100.41  4.70
412.8  2191.66  103.45  4.72
414.3  2261.49  105.98  4.69
415.8  2331.88  110.63  4.74
417.4  2402.24  114.61  4.77
418.9  2459.80  114.86  4.67
420.4  2506.21  115.53  4.61
421.9  2550.08  117.37  4.60
423.5  2589.52  116.64  4.50
425.0  2631.27  117.77  4.48
426.5  2683.21  117.61  4.38
428.0  2757.03  118.23  4.29
429.5  2844.00  119.69  4.21
431.1  2940.72  122.87  4.18
432.6  3051.01  125.25  4.11
434.1  3152.19  128.40  4.07
435.6  3242.09  131.78  4.06
437.1  3331.58  133.97  4.02
438.6  3416.16  136.57  4.00
440.1  3495.64  139.87  4.00
441.6  3584.98  142.88  3.99
443.1  3669.30  146.11  3.98
444.7  3749.87  149.09  3.98
446.2  3820.58  150.41  3.94
447.7  3887.82  154.59  3.98
449.2  3954.42  156.60  3.96
450.7  4014.40  157.56  3.92
452.2  4079.34  157.60  3.86
453.7  4158.97  160.83  3.87
455.2  4258.64  163.25  3.83
456.7  4381.96  166.32  3.80
458.2  4517.29  168.64  3.73
459.7  4652.82  173.69  3.73
461.2  4788.89  179.24  3.74
462.7  4907.29  181.60  3.70
464.2  5027.93  187.21  3.72
465.7  5149.52  192.35  3.74
467.2  5250.44  198.95  3.79
468.7  5357.00  201.70  3.77
470.2  5436.68  207.07  3.81
471.7  5552.76  211.02  3.80
473.2  5724.20  220.92  3.86
474.6  5852.15  224.65  3.84
476.1  5891.48  225.89  3.83
477.6  5917.53  224.33  3.79
479.1  5948.46  222.42  3.74
480.6  5990.65  223.45  3.73
482.1  6067.41  225.07  3.71
483.6  6157.24  227.48  3.69
485.1  6276.37  231.92  3.70
486.6  6419.90  236.50  3.68
488.0  6565.00  241.64  3.68
489.5  6724.46  245.81  3.66
491.0  6881.75  251.88  3.66
492.5  7039.71  257.02  3.65
494.0  7203.81  262.50  3.64
495.4  7344.98  267.88  3.65
496.9  7487.45  274.38  3.66
498.4  7625.14  280.19  3.67
499.9  7761.82  284.68  3.67
501.4  7886.97  291.33  3.69
502.8  8008.60  297.16  3.71
504.3  8116.20  302.58  3.73
505.8  8221.47  308.76  3.76
507.2  8292.97  311.49  3.76
508.7  8339.35  316.96  3.80
510.2  8374.78  321.16  3.83
511.6  8400.03  324.03  3.86
513.1  8451.94  327.44  3.87
514.6  8514.86  330.67  3.88
516.0  8569.82  335.20  3.91
517.5  8661.68  340.64  3.93
519.0  8774.24  346.10  3.94
520.5  8892.08  352.03  3.96
521.9  9039.28  359.27  3.97
523.4  9208.34  367.25  3.99
524.8  9379.64  374.93  4.00
526.3  9573.42  383.70  4.01
527.8  9768.32  393.79  4.03
529.2  9946.31  403.45  4.06
530.7  10144.32  413.47  4.08
532.1  10324.54  422.94  4.10
533.6  10528.50  434.26  4.12
535.0  10732.84  444.13  4.14
536.5  10934.30  455.49  4.17
538.0  11142.58  467.82  4.20
539.4  11342.97  478.71  4.22
540.9  11576.01  495.18  4.28
542.3  11784.69  511.50  4.34
543.8  11927.97  522.63  4.38
545.2  11963.32  530.03  4.43
546.6  11971.71  532.28  4.45
548.1  11984.14  537.85  4.49
549.5  11984.94  542.56  4.53
551.0  11985.66  547.97  4.57
552.4  12001.62  554.50  4.62
553.9  12006.43  560.99  4.67
555.3  12028.78  566.96  4.71
556.8  12086.35  574.54  4.75
558.2  12144.09  584.22  4.81
559.6  12224.37  596.89  4.88
561.1  12338.63  606.29  4.91
562.5  12469.46  618.33  4.96
564.0  12638.40  634.80  5.02
565.4  12797.79  648.97  5.07
566.8  12997.25  668.04  5.14
568.3  13185.42  684.04  5.19
569.7  13385.58  703.74  5.26
571.1  13582.35  722.63  5.32
572.6  13782.56  743.91  5.40
574.0  13974.68  764.20  5.47
575.4  14163.19  785.87  5.55
576.9  14338.17  806.22  5.62
578.3  14498.42  826.45  5.70
579.7  14654.04  846.90  5.78
581.1  14780.24  866.05  5.86
582.6  14912.40  885.55  5.94
584.0  15040.87  904.29  6.01
585.4  15202.63  932.57  6.13
586.8  15432.88  963.80  6.25
588.3  15681.51  998.01  6.36
589.7  15886.26  1027.61  6.47
591.1  16022.13  1052.10  6.57
592.5  16095.99  1073.90  6.67
594.0  16131.08  1089.80  6.76
595.4  16143.99  1104.39  6.84
596.8  16157.75  1120.34  6.93
598.2  16163.66  1135.82  7.03
599.6  16161.53  1152.79  7.13
601.0  16203.27  1172.51  7.24
602.4  16237.47  1194.09  7.35
603.9  16307.38  1217.04  7.46
605.3  16387.33  1239.51  7.56
606.7  16452.90  1260.72  7.66
608.1  16581.72  1288.62  7.77
609.5  16723.85  1319.31  7.89
610.9  16893.99  1353.24  8.01
612.3  17051.52  1386.68  8.13
613.7  17266.74  1429.02  8.28
615.1  17408.12  1465.78  8.42
616.5  17558.70  1507.34  8.58
617.9  17787.35  1556.51  8.75
619.3  18004.90  1605.88  8.92
620.7  18268.48  1662.89  9.10
622.1  18522.75  1730.66  9.34
623.5  18800.71  1812.90  9.64
624.9  19121.49  1898.69  9.93
626.3  19328.01  1966.63  10.18
627.7  19136.16  1988.29  10.39
629.1  18958.99  1994.50  10.52
630.5  18887.52  2004.96  10.62
631.9  18896.02  2022.24  10.70
633.3  18893.22  2042.38  10.81
634.7  18977.73  2078.66  10.95
636.1  19011.69  2117.92  11.14
637.5  19059.05  2157.67  11.32
638.9  19139.51  2192.37  11.45
640.2  19204.75  2220.86  11.56
641.6  19228.37  2248.15  11.69
643.0  19208.12  2267.95  11.81
644.4  19217.49  2280.64  11.87
645.8  19165.01  2255.11  11.77
647.2  19247.48  2235.48  11.61
648.5  19304.17  2229.34  11.55
649.9  19231.78  2236.25  11.63
651.3  19174.09  2254.20  11.76
652.7  19086.75  2269.25  11.89
654.1  18959.22  2267.87  11.96
655.5  18817.06  2254.76  11.98
656.8  18679.99  2240.11  11.99
658.2  18795.77  2252.77  11.99
659.6  19018.61  2279.39  11.99
660.9  19208.32  2298.15  11.96
662.3  19389.57  2317.88  11.95
663.7  19565.18  2339.72  11.96
665.0  19725.96  2359.89  11.96
666.4  19882.34  2386.21  12.00
667.8  20080.95  2423.16  12.07
669.1  20257.78  2463.21  12.16
670.5  20461.26  2516.05  12.30
671.9  20595.33  2570.30  12.48
673.2  20776.69  2642.65  12.72
674.6  20946.11  2727.09  13.02
676.0  21134.32  2829.17  13.39
677.3  21322.92  2939.92  13.79
678.7  21525.19  3061.07  14.22
680.0  21796.68  3204.85  14.70
681.4  22074.11  3359.29  15.22
682.8  22358.13  3523.30  15.76
684.1  22645.35  3689.71  16.29
685.5  22900.03  3856.25  16.84
686.8  23144.30  4020.26  17.37
688.2  23364.59  4175.30  17.87
689.5  23438.77  4306.48  18.37
690.9  23513.04  4426.24  18.82
692.2  23558.82  4542.44  19.28
693.6  23617.24  4646.34  19.67
694.9  23607.52  4736.65  20.06
696.2  23629.05  4829.31  20.44
697.6  23648.35  4918.29  20.80
698.9  23680.80  5008.74  21.15
700.3  23725.62  5097.56  21.49
701.6  23773.90  5187.58  21.82
703.0  23829.45  5274.82  22.14
704.3  23837.62  5350.13  22.44
705.6  23837.76  5426.27  22.76
707.0  23848.73  5501.59  23.07
708.3  23790.61  5563.26  23.38
709.6  23737.88  5625.46  23.70
711.0  23640.21  5671.34  23.99
712.3  23535.19  5720.73  24.31
713.6  23500.16  5776.81  24.58
714.9  23429.67  5830.50  24.89
716.3  23410.80  5890.31  25.16
717.6  23401.25  5955.59  25.45
718.9  23341.88  6006.79  25.73
720.2  23228.93  6043.63  26.02
721.6  23135.13  6088.39  26.32
722.9  23013.55  6118.33  26.59
724.2  22844.13  6137.53  26.87
725.5  22711.42  6158.78  27.12
726.8  22593.44  6179.67  27.35
728.1  22520.58  6219.12  27.62
729.5  22455.26  6258.99  27.87
730.8  22405.76  6294.88  28.09
732.1  22336.50  6327.44  28.33
733.4  22282.62  6360.37  28.54
734.7  22229.86  6393.96  28.76
736.0  22217.44  6446.10  29.01
737.3  22163.98  6488.51  29.28
738.6  22213.82  6557.65  29.52
739.9  22306.69  6637.01  29.75
741.2  22381.23  6707.20  29.97
742.5  22532.69  6805.47  30.20
743.8  22801.15  6939.82  30.44
745.1  23203.42  7123.43  30.70
746.4  23689.24  7336.01  30.97
747.7  24199.19  7566.26  31.27
749.0  24699.64  7794.71  31.56
750.3  24971.25  7952.16  31.85
751.6  24918.99  8011.45  32.15
752.9  24667.73  7995.89  32.41
754.2  24375.07  7961.24  32.66
755.4  24061.07  7912.34  32.88
756.7  23968.34  7935.03  33.11
758.0  23995.26  7999.08  33.34
759.3  24168.87  8118.36  33.59
760.6  24398.22  8250.09  33.81
761.9  24607.99  8377.81  34.05
763.1  24750.07  8482.47  34.27
764.4  24916.25  8603.04  34.53
765.7  25043.69  8708.54  34.77
767.0  25153.49  8806.12  35.01
768.2  25252.08  8897.62  35.24
769.5  25325.39  8981.88  35.47
770.8  25467.53  9088.28  35.69
772.0  25502.73  9169.32  35.95
773.3  25577.18  9260.82  36.21
774.6  25670.78  9355.14  36.44
775.8  25739.23  9437.38  36.67
777.1  25777.15  9507.20  36.88
778.4  25758.52  9563.17  37.13
779.6  25784.74  9630.27  37.35
780.9  25745.00  9683.40  37.61
782.1  25652.68  9710.88  37.86
783.4  25674.48  9766.02  38.04
784.6  25688.56  9831.59  38.27
785.9  25899.22  9962.97  38.47
787.1  26289.04  10182.09  38.73
788.4  26610.97  10383.97  39.02
789.6  26617.37  10452.41  39.27
790.9  26360.80  10408.35  39.48
792.1  26078.72  10351.70  39.69
793.4  25806.42  10308.67  39.95
794.6  25616.52  10295.82  40.19
795.8  25457.74  10288.08  40.41
797.1  25298.61  10274.77  40.61
798.3  25177.46  10280.84  40.83
799.5  25120.23  10313.33  41.06
800.8  25045.02  10341.92  41.29
802.0  24970.74  10360.75  41.49
803.2  24874.69  10372.95  41.70
804.5  24817.22  10397.01  41.89
805.7  24748.25  10413.51  42.08
806.9  24668.04  10430.13  42.28
808.1  24605.83  10455.92  42.49
809.4  24576.24  10489.11  42.68
810.6  24519.96  10504.59  42.84
811.8  24510.89  10545.79  43.02
813.0  24522.27  10592.88  43.20
814.2  24549.31  10651.80  43.39
815.4  24622.44  10720.58  43.54
816.6  24652.77  10773.31  43.70
817.9  24689.42  10821.92  43.83
819.1  24645.68  10844.29  44.00
820.3  24563.07  10840.99  44.14
821.5  24491.93  10843.82  44.28
822.7  24453.75  10857.93  44.40
823.9  24446.14  10880.49  44.51
825.1  24456.94  10904.67  44.59
826.3  24471.59  10924.26  44.64
827.5  24490.57  10949.70  44.71
828.7  24537.36  10975.47  44.73
829.9  24550.90  10997.55  44.79
831.0  24617.72  11030.53  44.81
832.2  24666.82  11066.27  44.86
833.4  24715.25  11094.12  44.89
834.6  24759.38  11133.28  44.97
835.8  24794.44  11177.23  45.08
837.0  24847.02  11228.18  45.19
838.1  24940.20  11285.72  45.25
839.3  24981.89  11327.86  45.34
840.5  25044.41  11388.79  45.47
841.7  25128.60  11454.29  45.58
842.9  25193.84  11515.85  45.71
844.0  25264.66  11570.66  45.80
845.2  25349.04  11640.11  45.92
846.4  25401.18  11698.62  46.06
847.5  25533.90  11791.17  46.18
848.7  25650.91  11870.62  46.28
849.9  25753.71  11942.98  46.37
851.0  25784.94  11983.29  46.47
852.2  25829.13  12033.56  46.59
853.3  25812.74  12061.20  46.73
854.5  25792.66  12086.67  46.86
855.6  25787.30  12099.80  46.92
856.8  25806.59  12141.02  47.05
857.9  25791.76  12161.98  47.15
859.1  25855.55  12221.44  47.27
860.2  25856.33  12248.20  47.37
861.4  25879.12  12281.63  47.46
862.5  25909.11  12316.71  47.54
863.7  25951.25  12364.70  47.65
864.8  25959.94  12393.61  47.74
865.9  25918.84  12406.97  47.87
867.1  25950.32  12429.93  47.90
868.2  25951.95  12452.62  47.98
869.3  25958.88  12466.89  48.03
870.5  25929.60  12465.02  48.07
871.6  25927.42  12485.80  48.16
872.7  25964.92  12518.12  48.21
873.9  25993.66  12538.27  48.24
875.0  25966.33  12535.69  48.28
876.1  25955.50  12546.22  48.34
877.2  25968.66  12556.68  48.35
878.3  25975.86  12556.83  48.34
879.4  25994.27  12570.35  48.36
880.5  26011.62  12581.87  48.37
881.7  26017.56  12577.83  48.34
882.8  26023.76  12591.69  48.39
883.9  26044.81  12609.05  48.41
885.0  26025.26  12586.09  48.36
886.1  26028.28  12581.97  48.34
887.2  25947.71  12542.82  48.34
888.3  25900.65  12508.12  48.29
889.4  25820.58  12469.64  48.29
890.5  25779.07  12441.76  48.26
891.6  25745.71  12414.51  48.22
892.7  25753.71  12410.00  48.19
893.8  25755.98  12409.20  48.18
894.9  25780.84  12405.84  48.12
896.0  25745.18  12384.58  48.10
897.0  25765.60  12392.32  48.10
898.1  25791.39  12387.21  48.03
899.2  25813.43  12383.44  47.97
900.3  25766.17  12342.22  47.90
901.4  25699.37  12310.90  47.90
902.4  25741.83  12302.01  47.79
903.5  25703.53  12277.51  47.77
904.6  25709.04  12262.34  47.70
905.7  25738.59  12241.30  47.56
906.7  25713.41  12232.12  47.57
907.8  25737.89  12230.22  47.52
908.9  25700.36  12187.20  47.42
909.9  25694.90  12166.52  47.35
911.0  25656.43  12130.41  47.28
912.1  25642.31  12087.71  47.14
913.1  25604.02  12037.30  47.01
914.2  25516.16  11975.05  46.93
915.2  25539.44  11932.56  46.72
916.3  25529.52  11897.19  46.60
917.3  25526.49  11848.72  46.42
918.4  25468.03  11769.43  46.21
919.4  25467.60  11712.38  45.99
920.5  25468.62  11652.76  45.75
921.5  25490.92  11603.37  45.52
922.6  25467.59  11507.81  45.19
923.6  25515.40  11441.75  44.84
924.7  25509.76  11376.19  44.60
925.7  25510.14  11294.94  44.28
926.7  25524.45  11214.08  43.93
927.8  25581.18  11137.91  43.54
928.8  25675.46  11080.34  43.16
929.9  25744.31  11011.64  42.77
930.9  25874.91  10961.37  42.36
931.9  26002.91  10898.79  41.91
932.9  26213.84  10867.08  41.46
934.0  26250.13  10764.28  41.01
935.0  26274.98  10669.05  40.61
936.0  26257.41  10555.08  40.20
937.0  26255.24  10433.11  39.74
938.1  26243.17  10316.30  39.31
939.1  26249.23  10186.03  38.81
940.1  26280.07  10094.41  38.41
941.1  26413.47  10027.15  37.96
942.1  26563.44  9962.38  37.50
943.1  26674.47  9890.45  37.08
944.1  26856.11  9810.92  36.53
945.2  26909.09  9684.28  35.99
946.2  26975.37  9585.67  35.53
947.2  27040.91  9461.48  34.99
948.2  27150.81  9359.84  34.47
949.2  27227.89  9238.49  33.93
950.2  27264.03  9114.24  33.43
951.2  27367.62  8989.97  32.85
952.2  27413.40  8866.13  32.34
953.2  27538.02  8763.82  31.82
954.2  27640.01  8656.82  31.32
955.2  27675.55  8535.41  30.84
956.2  27681.96  8446.66  30.51
957.2  27703.27  8359.28  30.17
958.2  27779.83  8297.26  29.87
959.2  27880.43  8239.25  29.55
960.1  27900.04  8190.03  29.35
961.1  27973.85  8148.45  29.13
962.1  27978.99  8108.26  28.98
963.1  28043.28  8091.46  28.85
964.1  28123.65  8085.49  28.75
965.1  28203.07  8096.94  28.71
966.1  28279.22  8068.68  28.53
967.0  28332.12  8065.70  28.47
968.0  28385.33  8063.47  28.41
969.0  28397.80  8062.45  28.39
970.0  28479.05  8060.88  28.30
971.0  28515.43  8069.31  28.30
971.9  28612.60  8074.82  28.22
972.9  28656.73  8096.66  28.25
973.9  28627.63  8106.89  28.32
974.9  28689.85  8137.66  28.36
975.8  28737.28  8164.23  28.41
976.8  28767.61  8165.32  28.38
977.8  28878.83  8211.27  28.43
978.8  28840.36  8231.59  28.54
979.7  28987.64  8248.92  28.46
980.7  28988.69  8320.83  28.70
981.7  29129.93  8375.94  28.75
982.6  29346.12  8488.17  28.92
983.6  29585.82  8567.56  28.96
984.6  29841.58  8661.15  29.02
985.5  30254.40  8825.35  29.17
986.5  30768.27  9058.56  29.44
987.5  31391.84  9275.49  29.55
988.4  31983.33  9549.65  29.86
989.4  32894.68  9743.57  29.62
990.4  33463.63  10035.44  29.99
991.3  34382.74  10310.56  29.99
992.3  35311.67  10525.03  29.81
993.2  36183.70  11029.02  30.48
994.2  37256.09  11157.85  29.95
995.2  37629.41  11638.54  30.93
996.1  38509.70  11797.42  30.63
997.1  37782.94  11823.46  31.29
998.0  38371.20  11819.70  30.80
999.0  38752.92  12176.91  31.42
1000.0  38345.29  12150.49  31.69
1000.9  38955.51  12375.26  31.77
1001.9  38516.33  11798.16  30.63
1002.8  38678.18  12042.51  31.14
1003.8  38513.40  11979.53  31.10
1004.8  38676.51  12116.36  31.33
961.5  34128.40  8991.33  26.35
965.5  33649.28  9020.05  26.81
969.5  32448.06  9006.19  27.76
973.4  31013.67  8869.10  28.60
977.4  29916.93  8778.69  29.34
981.4  29385.22  8800.26  29.95
985.3  29187.32  8883.38  30.44
989.3  29241.68  8989.68  30.74
993.3  29301.09  9060.93  30.92
997.2  29266.03  9134.20  31.21
1001.2  29234.27  9261.88  31.68
1005.2  29181.96  9430.74  32.32
1009.1  29219.22  9643.64  33.00
1013.1  29311.91  9904.34  33.79
1017.1  29387.71  10181.79  34.65
1021.0  29391.90  10423.42  35.46
1025.0  29375.66  10679.06  36.35
1029.0  29249.13  10911.23  37.30
1032.9  29144.44  11133.04  38.20
1036.9  29127.55  11399.22  39.14
1040.9  29183.81  11686.30  40.04
1044.8  29312.28  11973.12  40.85
1048.8  29420.43  12228.43  41.56
1052.7  29497.47  12443.34  42.18
1056.7  29528.44  12612.54  42.71
1060.7  29541.27  12743.20  43.14
1064.6  29548.45  12830.67  43.42
1068.6  29499.58  12854.30  43.57
1072.5  29458.52  12838.43  43.58
1076.5  29438.11  12798.89  43.48
1080.4  29438.43  12718.44  43.20
1084.4  29499.96  12628.07  42.81
1088.3  29571.01  12512.67  42.31
1092.3  29568.04  12310.96  41.64
1096.2  29574.31  12098.11  40.91
1100.2  29600.24  11905.25  40.22
1104.1  29534.12  11658.69  39.48
1108.1  29514.68  11426.74  38.72
1112.0  29458.78  11171.95  37.92
1116.0  29325.14  10865.10  37.05
1119.9  29229.57  10530.30  36.03
1123.9  29281.39  10167.15  34.72
1127.8  29266.56  9661.44  33.01
1131.8  29262.71  9047.80  30.92
1135.7  29301.45  8378.08  28.59
1139.6  29300.64  7703.31  26.29
1143.6  29290.55  7113.99  24.29
1147.5  29284.68  6648.12  22.70
1151.4  29196.30  6279.94  21.51
1155.4  29215.66  6048.89  20.70
1159.3  29249.81  5913.05  20.22
1163.2  29170.32  5798.56  19.88
1167.2  29174.91  5726.84  19.63
1171.1  29185.70  5674.46  19.44
1175.0  29154.03  5616.85  19.27
1179.0  29152.93  5566.62  19.09
1182.9  29212.24  5538.99  18.96
1186.8  29218.24  5505.43  18.84
1190.7  29094.20  5448.64  18.73
1194.7  28939.07  5392.83  18.64
1198.6  28814.94  5355.16  18.58
1202.5  28728.65  5334.70  18.57
1206.4  28659.17  5328.04  18.59
1210.3  28609.62  5332.96  18.64
1214.2  28558.96  5343.33  18.71
1218.2  28467.61  5356.78  18.82
1222.1  28395.89  5374.28  18.93
1226.0  28353.32  5386.62  19.00
1229.9  28303.59  5397.26  19.07
1233.8  28249.45  5414.28  19.17
1237.7  28218.39  5433.68  19.26
1241.6  28166.66  5443.99  19.33
1245.5  28080.20  5446.11  19.39
1249.4  28009.25  5448.66  19.45
1253.3  27939.78  5451.09  19.51
1257.2  27901.12  5455.59  19.55
1261.1  27841.97  5444.91  19.56
1265.0  27767.75  5424.63  19.54
1268.9  27661.47  5384.40  19.47
1272.8  27704.85  5368.69  19.38
1276.7  27825.34  5359.73  19.26
1280.6  27881.16  5325.35  19.10
1284.5  27835.52  5263.36  18.91
1288.4  27824.18  5193.30  18.66
1292.3  27753.00  5107.44  18.40
1296.2  27667.88  5008.69  18.10
1300.1  27561.98  4892.71  17.75
1303.9  27418.49  4753.44  17.34
1307.8  27273.19  4611.29  16.91
1311.7  27108.34  4469.48  16.49
1315.6  26949.88  4327.08  16.06
1319.5  26784.86  4179.53  15.60
1323.3  26632.13  4034.81  15.15
1327.2  26497.54  3893.13  14.69
1331.1  26343.40  3754.23  14.25
1335.0  26147.81  3615.23  13.83
1338.8  26002.94  3495.53  13.44
1342.7  25870.15  3391.50  13.11
1346.5  25608.05  3269.64  12.77
1350.4  25372.28  3159.66  12.45
1354.3  25061.29  3048.69  12.16
1358.1  24738.75  2947.78  11.92
1362.0  24560.17  2869.05  11.68
1365.8  24519.07  2797.39  11.41
1369.7  24607.16  2730.77  11.10
1373.5  24576.72  2630.83  10.70
1377.4  24405.29  2494.36  10.22
1381.2  24261.52  2340.72  9.65
1385.1  24252.15  2203.98  9.09
1389.0  24212.95  2066.60  8.54
1392.8  24092.99  1920.39  7.97
1396.6  24000.31  1791.34  7.46
1400.5  23870.32  1679.75  7.04
1404.3  23774.35  1589.58  6.69
1408.2  23763.18  1524.99  6.42
1412.0  23751.70  1474.97  6.21
1415.8  23790.04  1431.01  6.02
1419.6  23778.89  1394.17  5.86
1423.5  23771.38  1371.20  5.77
1427.3  23758.76  1351.95  5.69
1431.1  23753.37  1332.81  5.61
1434.9  23696.71  1318.36  5.56
1438.8  23662.78  1308.56  5.53
1442.6  23647.77  1302.29  5.51
1446.4  23577.85  1294.26  5.49
1450.2  23526.93  1286.31  5.47
1454.0  23463.48  1276.80  5.44
1457.8  23449.41  1276.86  5.45
1461.6  23437.17  1279.11  5.46
1465.4  23363.16  1279.68  5.48
1469.2  23251.64  1282.54  5.52
1473.0  23159.37  1289.92  5.57
1476.8  23123.98  1299.60  5.62
1480.7  23085.13  1314.42  5.69
1484.4  23013.18  1329.24  5.78
1488.2  22949.34  1352.61  5.89
1492.0  22868.48  1380.32  6.04
1495.8  22797.78  1396.86  6.13
1499.6  22727.33  1411.84  6.21
1503.4  22646.62  1426.57  6.30
1507.2  22573.38  1431.33  6.34
1510.9  22488.12  1424.54  6.33
1514.7  22392.10  1409.43  6.29
1518.5  22317.21  1407.12  6.31
1522.3  22228.33  1427.32  6.42
1526.0  22159.97  1454.20  6.56
1529.8  22124.97  1470.31  6.65
1533.6  22051.34  1480.01  6.71
1537.3  21969.15  1483.82  6.75
1541.1  21887.73  1476.04  6.74
1544.8  21808.80  1480.20  6.79
1548.6  21728.56  1507.31  6.94
1552.4  21663.57  1542.05  7.12
1556.1  21610.47  1559.27  7.22
1559.9  21554.38  1565.68  7.26
1563.6  21485.47  1575.55  7.33
1567.3  21416.79  1589.95  7.42
1571.1  21280.66  1600.56  7.52
1574.8  21188.21  1614.81  7.62
1578.6  21129.02  1625.03  7.69
1582.3  21045.90  1628.70  7.74
1586.0  20960.21  1634.67  7.80
1589.8  20876.86  1637.28  7.84
1593.5  20779.71  1637.57  7.88
1597.2  20703.83  1635.68  7.90
1600.9  20621.35  1632.84  7.92
1604.7  20525.23  1637.05  7.98
1608.4  20451.00  1642.70  8.03
1612.1  20355.82  1640.65  8.06
1615.8  20264.54  1639.09  8.09
1619.5  20210.26  1649.65  8.16
1623.2  20118.28  1652.99  8.22
1626.9  20010.57  1646.96  8.23
1630.6  19906.92  1643.18  8.25
1634.3  19823.98  1643.03  8.29
1638.0  19732.83  1643.70  8.33
1641.7  19629.15  1639.97  8.35
1645.4  19517.09  1635.10  8.38
1649.1  19405.15  1628.01  8.39
1652.8  19309.86  1622.08  8.40
1656.4  19200.84  1609.61  8.38
1660.1  19101.50  1601.44  8.38
1663.8  18986.19  1596.01  8.41
1667.5  18890.44  1589.14  8.41
1671.1  18805.97  1576.22  8.38
1674.8  18688.50  1561.36  8.35
1678.5  18653.94  1555.28  8.34
1682.1  18663.62  1545.65  8.28
1685.8  18672.24  1542.39  8.26
1689.5  18609.81  1534.18  8.24
1693.1  18522.74  1519.17  8.20
1696.8  18434.75  1504.57  8.16
1700.4  18347.36  1491.73  8.13
1704.0  18277.27  1474.67  8.07
1707.7  18121.34  1448.32  7.99
1711.3  17937.95  1418.48  7.91
1715.0  17815.35  1396.94  7.84
1718.6  17712.43  1376.50  7.77
1722.2  17626.56  1356.31  7.69
1725.9  17537.68  1342.23  7.65
1729.5  17439.82  1322.80  7.58
1733.1  17369.96  1312.25  7.55
1736.7  17299.19  1305.66  7.55
1740.3  17191.32  1288.51  7.50
1744.0  17137.39  1277.67  7.46
1747.5  17049.03  1267.83  7.44
1751.2  16915.32  1245.27  7.36
1754.8  16810.68  1225.30  7.29
1758.4  16727.34  1209.88  7.23
1762.0  16617.89  1197.49  7.21
1765.5  16530.69  1185.54  7.17
1769.1  16497.60  1176.60  7.13
1772.7  16450.70  1170.56  7.12
1776.3  16376.01  1158.93  7.08
1779.9  16300.90  1145.70  7.03
1783.5  16265.08  1137.08  6.99
1787.0  16179.78  1129.55  6.98
1790.6  16074.17  1118.02  6.96
1794.2  15998.41  1111.16  6.95
1797.8  15932.30  1106.59  6.95
1801.3  15866.75  1095.51  6.90
1804.9  15764.44  1090.69  6.92
1808.4  15704.40  1088.29  6.93
1812.0  15596.32  1076.50  6.90
1815.5  15481.82  1069.61  6.91
1819.1  15348.22  1057.93  6.89
1822.6  15243.86  1047.62  6.87
1826.2  15157.10  1044.48  6.89
1829.7  15032.52  1033.44  6.87
1833.2  14871.63  1021.03  6.87
1836.8  14729.04  1009.65  6.85
1840.3  14651.11  996.18  6.80
1843.8  14601.51  988.70  6.77
1847.3  14576.63  979.36  6.72
1850.8  14543.43  969.70  6.67
1854.3  14479.46  956.51  6.61
1857.8  14440.40  942.50  6.53
1861.3  14412.32  929.93  6.45
1864.8  14311.77  900.34  6.29
1868.3  14117.09  866.71  6.14
1871.8  14008.32  823.68  5.88
1875.3  14008.09  781.24  5.58
1878.8  14010.14  752.13  5.37
1882.3  13958.41  716.72  5.13
1885.8  13857.50  670.59  4.84
1889.3  13745.97  629.75  4.58
1892.7  13626.31  608.71  4.47
1896.2  13525.10  590.88  4.37
1899.7  13434.06  573.41  4.27
1903.1  13414.64  588.59  4.39
1906.6  13511.57  593.74  4.39
1910.0  13707.56  604.59  4.41
1913.5  13990.11  654.26  4.68
1917.0  14326.91  793.89  5.54
1920.4  14722.67  970.73  6.59
1923.8  14764.87  907.57  6.15
1871.2  12660.01  592.37  4.68
1873.9  12783.99  665.78  5.21
1876.7  12885.65  666.50  5.17
1879.5  12957.92  614.79  4.74
1882.3  12810.77  599.94  4.68
1885.1  12757.60  553.84  4.34
1887.8  12831.81  509.23  3.97
1890.6  12731.96  506.79  3.98
1893.4  12635.33  504.17  3.99
1896.2  12525.85  491.68  3.93
1898.9  12515.87  475.33  3.80
1901.7  12400.35  459.98  3.71
1904.5  12479.11  458.91  3.68
1907.2  12447.38  472.63  3.80
1910.0  12353.93  465.84  3.77
1912.7  12354.29  449.38  3.64
1915.5  12321.16  460.07  3.73
1918.2  12286.21  453.55  3.69
1921.0  12216.40  438.39  3.59
1923.7  12262.80  465.23  3.79
1926.5  12248.33  448.61  3.66
1929.2  12241.45  419.27  3.43
1932.0  12237.10  440.03  3.60
1934.7  12214.32  449.46  3.68
1937.4  12160.09  437.33  3.60
1940.2  12142.74  435.65  3.59
1942.9  12204.37  435.44  3.57
1945.6  12215.90  427.33  3.50
1948.3  12162.69  436.21  3.59
1951.1  12134.82  441.72  3.64
1953.8  12132.00  435.00  3.59
1956.5  12066.86  438.77  3.64
1959.2  12109.50  454.48  3.75
1961.9  12130.09  452.22  3.73
1964.6  12084.45  452.20  3.74
1967.3  12104.00  466.51  3.85
1970.0  11988.00  450.66  3.76
1972.8  11934.35  439.04  3.68
1975.5  11987.63  452.17  3.77
1978.2  11948.64  450.41  3.77
1980.9  11872.80  456.20  3.84
1983.5  11828.19  467.52  3.95
1986.2  11821.88  459.05  3.88
1988.9  11811.69  471.42  3.99
1991.6  11732.95  480.12  4.09
1994.3  11634.21  464.30  3.99
1997.0  11644.34  463.50  3.98
1999.7  11646.05  465.21  3.99
2002.3  11627.49  471.77  4.06
2005.0  11569.95  484.72  4.19
2007.7  11524.00  480.17  4.17
2010.4  11481.39  470.37  4.10
2013.0  11445.44  478.68  4.18
2015.7  11380.88  480.95  4.23
2018.4  11314.05  474.43  4.19
2021.0  11300.75  475.29  4.21
2023.7  11221.87  475.59  4.24
2026.4  11173.72  482.36  4.32
2029.0  11137.01  482.21  4.33
2031.7  11058.23  468.98  4.24
2034.3  11058.24  466.86  4.22
2037.0  10981.32  468.00  4.26
2039.6  10932.62  474.05  4.34
2042.3  10920.21  482.33  4.42
2044.9  10886.21  485.27  4.46
2047.5  10855.35  477.56  4.40
2050.2  10773.00  471.80  4.38
2052.8  10760.40  482.30  4.48
2055.4  10692.56  472.78  4.42
2058.1  10600.80  476.70  4.50
2060.7  10587.47  491.92  4.65
2063.3  10539.18  484.18  4.59
2065.9  10492.48  470.40  4.48
2068.6  10439.44  473.19  4.53
2071.2  10412.28  482.67  4.64
2073.8  10370.63  477.82  4.61
2076.4  10338.36  488.36  4.72
2079.0  10328.16  485.43  4.70
2081.6  10322.12  469.83  4.55
2084.2  10307.55  478.98  4.65
2086.8  10230.08  489.30  4.78
2089.4  10162.36  483.65  4.76
2092.1  10107.92  480.25  4.75
2094.7  10073.96  478.84  4.75
2097.2  10061.17  478.83  4.76
2099.8  10070.09  486.07  4.83
2102.4  9991.48  468.44  4.69
2105.0  9896.63  472.39  4.77
2107.6  9869.48  487.78  4.94
2110.2  9842.12  475.27  4.83
2112.8  9825.53  481.04  4.90
2115.3  9843.53  487.13  4.95
2117.9  9845.36  475.87  4.83
2120.5  9816.27  484.62  4.94
2123.1  9776.82  502.37  5.14
2125.6  9758.68  490.50  5.03
2128.2  9688.73  474.85  4.90
2130.8  9617.41  481.90  5.01
2133.3  9612.54  478.13  4.97
2135.9  9553.07  476.55  4.99
2138.4  9470.59  492.83  5.20
2141.0  9410.02  489.24  5.20
2143.6  9381.34  466.14  4.97
2146.1  9277.79  460.58  4.96
2148.7  9181.49  483.81  5.27
2151.2  9204.80  478.87  5.20
2153.8  9203.80  472.41  5.13
2156.3  9127.28  463.68  5.08
2158.8  9090.36  457.77  5.04
2161.4  9064.66  476.16  5.25
2163.9  9005.69  459.94  5.11
2166.4  8966.09  448.68  5.00
2169.0  8957.22  462.72  5.17
2171.5  8896.61  464.20  5.22
2174.0  8823.85  448.48  5.08
2176.5  8808.54  453.73  5.15
2179.1  8768.47  454.76  5.19
2181.6  8721.98  441.04  5.06
2184.1  8713.32  443.52  5.09
2186.6  8726.14  451.14  5.17
2189.1  8676.63  443.78  5.11
2191.6  8633.80  449.17  5.20
2194.1  8628.03  445.93  5.17
2196.6  8632.63  442.42  5.12
2199.2  8694.68  456.97  5.26
2201.7  8653.31  455.77  5.27
2204.1  8610.92  447.13  5.19
2206.6  8618.17  442.01  5.13
2209.1  8597.63  444.74  5.17
2211.6  8585.94  444.43  5.18
2214.1  8549.95  466.66  5.46
2216.6  8551.95  457.70  5.35
2219.1  8567.14  430.16  5.02
2221.6  8519.32  442.53  5.19
2224.0  8467.73  451.49  5.33
2226.5  8450.91  437.58  5.18
2229.0  8475.55  441.57  5.21
2231.5  8387.70  447.15  5.33
2233.9  8373.97  440.64  5.26
2236.4  8395.50  438.11  5.22
2238.9  8337.07  434.97  5.22
2241.3  8344.67  418.79  5.02
2243.8  8317.47  421.71  5.07
2246.2  8212.72  429.34  5.23
2248.7  8206.99  410.74  5.00
2251.2  8195.91  411.24  5.02
2253.6  8150.40  400.32  4.91
2256.1  8131.20  385.92  4.75
2258.5  8140.49  401.45  4.93
2260.9  8089.94  394.05  4.87
2263.4  8064.34  378.08  4.69
2265.8  8076.08  386.59  4.79
2268.3  8035.33  380.99  4.74
2270.7  8066.26  385.75  4.78
2273.1  8024.74  402.68  5.02
2275.6  7989.12  384.00  4.81
2278.0  7980.69  362.23  4.54
2280.4  7985.29  376.18  4.71
2282.8  7900.14  376.52  4.77
2285.3  7883.60  347.04  4.40
2287.7  7948.63  365.12  4.59
2290.1  7888.88  379.52  4.81
2292.5  7879.13  354.18  4.50
2294.9  7869.75  347.75  4.42
2297.3  7813.11  362.88  4.64
2299.7  7784.14  343.51  4.41
2302.1  7750.60  342.75  4.42
2304.5  7661.64  337.12  4.40
2306.9  7612.64  318.50  4.18
2309.3  7570.23  337.96  4.46
2311.7  7502.64  327.74  4.37
2314.1  7396.20  313.10  4.23
2316.5  7367.80  324.07  4.40
2318.9  7392.60  329.13  4.45
2321.3  7354.84  324.86  4.42
2323.7  7369.70  332.44  4.51
2326.1  7372.89  337.51  4.58
2328.4  7375.89  311.23  4.22
2330.8  7419.26  323.11  4.36
2333.2  7349.17  345.94  4.71
2335.6  7302.78  320.72  4.39
2337.9  7349.24  317.17  4.32
2340.3  7323.99  308.58  4.21
2342.7  7261.54  309.97  4.27
2345.0  7255.43  327.00  4.51
2347.4  7256.88  310.25  4.28
2349.7  7116.60  293.68  4.13
2352.1  7071.47  316.27  4.47
2354.4  7103.00  304.11  4.28
2356.8  7059.91  276.27  3.91
2359.2  7015.67  290.33  4.14
2361.5  7003.15  306.53  4.38
2363.8  7020.08  299.73  4.27
2366.2  7001.76  286.87  4.10
2368.5  6966.48  292.59  4.20
2370.9  6956.04  297.48  4.28
2373.2  6940.61  300.15  4.32
2375.5  6873.48  274.90  4.00
2377.9  6826.11  274.64  4.02
2380.2  6847.30  294.37  4.30
2382.5  6793.71  274.55  4.04
2384.8  6769.76  264.48  3.91
2387.2  6774.64  281.30  4.15
2389.5  6744.90  273.86  4.06
2391.8  6744.98  270.94  4.02
2394.1  6686.48  293.90  4.40
2396.4  6645.45  290.30  4.37
2398.7  6679.06  258.20  3.87
2401.0  6636.19  255.91  3.86
2403.3  6566.13  261.45  3.98
2405.6  6542.82  243.67  3.72
2407.9  6523.02  239.23  3.67
2410.2  6489.76  253.17  3.90
2412.5  6463.88  266.79  4.13
2414.8  6444.43  277.29  4.30
2417.1  6418.53  272.28  4.24
2419.4  6397.88  248.78  3.89
2421.7  6342.17  256.26  4.04
2424.0  6321.51  249.64  3.95
2426.2  6355.80  244.76  3.85
2428.5  6311.53  251.49  3.98
2430.8  6275.68  253.43  4.04
2433.1  6245.25  226.80  3.63
2435.4  6188.08  223.80  3.62
2437.6  6160.10  253.18  4.11
2439.9  6083.86  228.82  3.76
2442.2  6095.05  231.80  3.80
2444.4  6119.52  254.14  4.15
2446.7  6067.76  229.22  3.78
2448.9  6093.40  207.26  3.40
2451.2  6055.36  211.58  3.49
2453.4  5984.48  194.36  3.25
2455.7  6008.69  212.86  3.54
2457.9  5943.22  204.52  3.44
2460.2  5912.24  197.28  3.34
2462.4  5915.52  201.24  3.40
2464.7  5832.06  206.60  3.54
2466.9  5787.63  223.10  3.85
2469.2  5804.33  233.34  4.02
2471.4  5764.08  218.29  3.79
2473.6  5717.53  205.87  3.60
2475.9  5703.15  203.20  3.56
2478.1  5632.71  181.04  3.21
2480.3  5551.93  189.71  3.42
2482.5  5554.26  210.88  3.80
2484.8  5559.56  202.07  3.63
2487.0  5540.19  181.47  3.28
2489.2  5521.83  192.23  3.48
2491.4  5448.67  190.21  3.49
2493.6  5431.97  197.92  3.64
2495.8  5459.70  188.06  3.44
2498.0  5415.26  176.32  3.26
2500.2  5413.07  172.72  3.19
2502.4  5607.72  190.92  3.40
2504.6  5676.26  190.15  3.35
2506.8  5703.75  153.43  2.69
