/*** Spectra Vista SIG Data ***/
name= S4.sig
comm= Averaged Ref/Tar of files: GD3S10,GD3S11,GD3S12
data=
346.4  598.78  167.21  27.93
347.9  627.50  166.81  26.58
349.5  677.04  165.88  24.50
351.1  739.44  168.48  22.78
352.6  790.63  173.41  21.93
354.2  841.03  183.26  21.79
355.7  912.59  188.58  20.66
357.3  974.37  195.34  20.05
358.8  992.58  193.39  19.48
360.4  1062.29  205.77  19.37
361.9  1117.88  207.21  18.54
363.5  1149.55  209.48  18.22
365.1  1196.29  208.05  17.39
366.6  1260.16  204.85  16.26
368.2  1349.72  210.41  15.59
369.7  1403.95  210.05  14.96
371.3  1488.21  212.37  14.27
372.8  1577.00  216.91  13.75
374.4  1638.71  223.61  13.65
375.9  1688.10  223.43  13.24
377.4  1740.09  225.51  12.96
379.0  1788.57  224.37  12.54
380.5  1855.73  224.14  12.08
382.1  1905.98  219.16  11.50
383.6  1973.16  221.13  11.21
385.2  2065.25  219.08  10.61
386.7  2149.76  225.17  10.47
388.3  2271.83  232.80  10.25
389.8  2363.45  239.73  10.14
391.3  2453.59  246.94  10.06
392.9  2526.36  254.15  10.06
394.4  2602.50  265.59  10.21
395.9  2690.98  282.60  10.50
397.5  2829.48  297.70  10.52
399.0  2963.31  292.52  9.87
400.6  3033.76  285.36  9.41
402.1  3072.78  279.50  9.10
403.6  3116.75  278.51  8.94
405.1  3199.00  282.58  8.83
406.7  3304.00  289.33  8.76
408.2  3412.53  297.37  8.71
409.7  3521.28  308.37  8.76
411.3  3642.17  321.30  8.82
412.8  3732.75  333.78  8.94
414.3  3845.02  352.03  9.16
415.8  3965.00  365.83  9.23
417.4  4085.95  382.87  9.37
418.9  4192.21  391.73  9.34
420.4  4267.16  403.79  9.46
421.9  4346.32  408.98  9.41
423.5  4413.15  416.80  9.44
425.0  4492.75  423.28  9.42
426.5  4594.55  424.63  9.24
428.0  4712.54  435.81  9.25
429.5  4856.53  446.35  9.19
431.1  5025.20  462.79  9.21
432.6  5198.44  479.02  9.21
434.1  5370.75  493.76  9.19
435.6  5520.56  504.71  9.14
437.1  5670.60  522.93  9.22
438.6  5806.58  540.05  9.30
440.1  5943.54  555.76  9.35
441.6  6091.61  576.72  9.47
443.1  6230.93  597.71  9.59
444.7  6356.12  624.38  9.82
446.2  6474.98  652.20  10.07
447.7  6582.53  675.66  10.26
449.2  6691.68  700.92  10.47
450.7  6814.08  718.64  10.55
452.2  6930.56  739.82  10.67
453.7  7066.33  766.11  10.84
455.2  7233.85  793.09  10.96
456.7  7443.04  827.20  11.11
458.2  7673.27  857.44  11.17
459.7  7920.50  890.75  11.25
461.2  8156.07  923.39  11.32
462.7  8366.46  957.35  11.44
464.2  8568.06  985.46  11.50
465.7  8788.58  1015.42  11.55
467.2  8970.50  1041.75  11.61
468.7  9176.00  1072.67  11.69
470.2  9305.26  1108.90  11.92
471.7  9490.50  1139.60  12.01
473.2  9788.42  1163.40  11.89
474.6  10042.30  1177.11  11.72
476.1  10127.24  1194.97  11.80
477.6  10169.21  1210.06  11.90
479.1  10224.56  1229.13  12.02
480.6  10293.47  1245.88  12.10
482.1  10426.95  1265.47  12.14
483.6  10590.11  1292.42  12.20
485.1  10796.39  1325.78  12.28
486.6  11041.55  1368.80  12.40
488.0  11290.50  1419.44  12.57
489.5  11568.25  1475.57  12.76
491.0  11840.59  1539.13  13.00
492.5  12119.22  1613.25  13.31
494.0  12409.65  1691.41  13.63
495.4  12660.45  1778.98  14.05
496.9  12912.44  1875.97  14.53
498.4  13155.80  1982.48  15.07
499.9  13408.52  2099.36  15.66
501.4  13645.90  2226.04  16.31
502.8  13864.50  2363.33  17.05
504.3  14081.40  2515.20  17.86
505.8  14291.05  2673.94  18.71
507.2  14436.37  2833.45  19.63
508.7  14548.87  2997.37  20.60
510.2  14651.50  3165.43  21.60
511.6  14718.08  3329.23  22.62
513.1  14838.45  3512.80  23.67
514.6  14986.45  3706.39  24.73
516.0  15112.04  3896.84  25.79
517.5  15305.31  4116.82  26.90
519.0  15537.89  4346.74  27.98
520.5  15768.60  4581.34  29.05
521.9  16045.99  4832.66  30.12
523.4  16363.11  5090.97  31.11
524.8  16675.79  5343.83  32.05
526.3  17027.53  5607.31  32.93
527.8  17380.80  5862.56  33.73
529.2  17706.86  6101.97  34.46
530.7  18056.71  6343.13  35.13
532.1  18377.28  6563.55  35.72
533.6  18738.23  6790.45  36.24
535.0  19114.67  7018.65  36.72
536.5  19476.07  7238.87  37.17
538.0  19846.24  7458.44  37.58
539.4  20198.95  7663.61  37.94
540.9  20626.19  7886.47  38.24
542.3  20984.92  8079.29  38.50
543.8  21250.33  8238.46  38.77
545.2  21329.19  8340.00  39.10
546.6  21331.64  8415.14  39.45
548.1  21362.06  8484.99  39.72
549.5  21376.46  8545.47  39.98
551.0  21386.66  8597.96  40.20
552.4  21443.54  8659.61  40.38
553.9  21463.89  8701.79  40.54
555.3  21521.57  8740.19  40.61
556.8  21650.10  8799.39  40.64
558.2  21773.81  8848.97  40.64
559.6  21936.94  8910.28  40.62
561.1  22168.25  8987.88  40.54
562.5  22423.78  9073.09  40.46
564.0  22757.43  9176.89  40.32
565.4  23059.14  9262.55  40.17
566.8  23449.52  9365.05  39.94
568.3  23818.66  9445.75  39.66
569.7  24198.01  9524.28  39.36
571.1  24579.14  9584.20  38.99
572.6  24952.86  9640.89  38.64
574.0  25317.60  9691.83  38.28
575.4  25678.69  9732.09  37.90
576.9  26008.29  9771.01  37.57
578.3  26306.64  9801.16  37.26
579.7  26593.28  9830.88  36.97
581.1  26823.10  9849.31  36.72
582.6  27065.10  9871.82  36.47
584.0  27286.52  9884.15  36.22
585.4  27587.92  9922.94  35.97
586.8  27978.96  9989.53  35.70
588.3  28419.30  10070.58  35.44
589.7  28786.68  10134.93  35.21
591.1  29016.81  10167.61  35.04
592.5  29127.43  10166.92  34.90
594.0  29186.34  10146.51  34.76
595.4  29194.56  10110.11  34.63
596.8  29193.45  10076.50  34.52
598.2  29177.08  10030.59  34.38
599.6  29153.88  9979.82  34.23
601.0  29216.28  9945.56  34.04
602.4  29261.60  9897.06  33.82
603.9  29364.60  9866.18  33.60
605.3  29484.10  9824.94  33.32
606.7  29584.80  9772.50  33.03
608.1  29785.49  9743.32  32.71
609.5  30013.28  9711.02  32.36
610.9  30296.78  9696.25  32.00
612.3  30557.28  9665.90  31.63
613.7  30914.00  9659.33  31.25
615.1  31159.08  9610.92  30.84
616.5  31406.64  9568.74  30.47
617.9  31801.61  9585.09  30.14
619.3  32170.62  9616.89  29.89
620.7  32635.92  9690.27  29.69
622.1  33083.75  9701.24  29.32
623.5  33564.04  9691.79  28.88
624.9  34116.86  9699.24  28.43
626.3  34490.69  9665.45  28.02
627.7  34145.81  9499.79  27.82
629.1  33851.16  9400.11  27.77
630.5  33743.57  9394.56  27.84
631.9  33775.53  9440.93  27.95
633.3  33808.52  9469.70  28.01
634.7  33992.91  9529.48  28.03
636.1  34075.08  9527.70  27.96
637.5  34196.58  9509.20  27.81
638.9  34374.61  9459.47  27.52
640.2  34545.58  9407.68  27.23
641.6  34634.34  9341.28  26.97
643.0  34657.83  9231.28  26.64
644.4  34696.37  9112.57  26.26
645.8  34653.86  8946.70  25.82
647.2  34834.41  8826.96  25.34
648.5  34958.93  8702.88  24.89
649.9  34861.32  8536.19  24.49
651.3  34789.65  8401.40  24.15
652.7  34680.00  8242.88  23.77
654.1  34452.30  7942.52  23.05
655.5  34172.42  7606.02  22.26
656.8  33904.63  7280.46  21.47
658.2  34070.04  7055.81  20.71
659.6  34442.82  6882.12  19.98
660.9  34748.70  6690.54  19.25
662.3  35067.95  6499.45  18.53
663.7  35364.00  6301.40  17.82
665.0  35617.00  6120.47  17.18
666.4  35877.31  5952.02  16.59
667.8  36209.10  5829.01  16.10
669.1  36482.80  5708.62  15.65
670.5  36799.72  5631.85  15.30
671.9  36995.40  5561.72  15.03
673.2  37270.13  5538.88  14.86
674.6  37530.47  5541.99  14.77
676.0  37841.78  5580.90  14.75
677.3  38141.57  5658.95  14.84
678.7  38483.75  5781.77  15.02
680.0  38922.37  5984.78  15.38
681.4  39389.45  6263.70  15.90
682.8  39844.35  6638.07  16.66
684.1  40287.78  7121.40  17.68
685.5  40705.56  7728.84  18.99
686.8  41091.84  8458.71  20.58
688.2  41433.89  9306.38  22.46
689.5  41549.57  10221.63  24.60
690.9  41633.44  11229.37  26.97
692.2  41697.60  12298.23  29.49
693.6  41771.65  13431.99  32.16
694.9  41721.88  14544.03  34.86
696.2  41751.90  15676.80  37.55
697.6  41766.04  16784.44  40.19
698.9  41796.48  17869.72  42.75
700.3  41844.24  18925.41  45.23
701.6  41918.48  19934.54  47.56
703.0  41979.40  20881.76  49.74
704.3  41981.71  21714.17  51.72
705.6  41967.18  22496.70  53.61
707.0  41980.75  23219.96  55.31
708.3  41872.71  23826.87  56.90
709.6  41753.67  24389.05  58.41
711.0  41589.99  24867.01  59.79
712.3  41418.66  25295.55  61.07
713.6  41354.04  25753.42  62.28
714.9  41240.96  26149.49  63.41
716.3  41218.54  26565.35  64.45
717.6  41221.95  26970.61  65.43
718.9  41134.56  27266.13  66.29
720.2  40936.00  27454.71  67.07
721.6  40765.66  27642.05  67.81
722.9  40572.15  27798.18  68.52
724.2  40305.71  27879.06  69.17
725.5  40134.57  27995.39  69.75
726.8  39960.91  28066.77  70.24
728.1  39855.98  28172.22  70.69
729.5  39766.23  28258.30  71.06
730.8  39707.44  28345.90  71.39
732.1  39612.07  28403.51  71.70
733.4  39556.45  28472.76  71.98
734.7  39507.57  28511.57  72.17
736.0  39511.29  28607.00  72.40
737.3  39463.58  28662.26  72.63
738.6  39569.04  28829.15  72.86
739.9  39770.92  29070.02  73.09
741.2  39928.98  29253.32  73.26
742.5  40206.42  29556.75  73.51
743.8  40696.43  29986.21  73.68
745.1  41398.16  30597.13  73.91
746.4  42245.84  31265.02  74.01
747.7  43136.62  31916.36  73.99
749.0  43980.49  32523.07  73.95
750.3  44484.44  32845.45  73.84
751.6  44396.66  32777.11  73.83
752.9  43969.12  32486.09  73.88
754.2  43470.53  32171.34  74.01
755.4  42928.75  31838.01  74.16
756.7  42746.48  31785.96  74.36
758.0  42774.71  31876.85  74.52
759.3  43048.01  32150.31  74.68
760.6  43418.76  32501.70  74.86
761.9  43775.94  32827.28  74.99
763.1  43996.61  33011.66  75.03
764.4  44239.34  33233.94  75.12
765.7  44424.25  33407.29  75.20
767.0  44583.75  33536.34  75.22
768.2  44688.00  33658.24  75.32
769.5  44782.92  33748.38  75.36
770.8  44990.42  33912.00  75.38
772.0  45014.41  33956.38  75.43
773.3  45100.97  34053.60  75.51
774.6  45226.84  34165.88  75.54
775.8  45313.45  34247.96  75.58
777.1  45344.81  34277.00  75.59
778.4  45245.88  34237.04  75.67
779.6  45226.44  34247.99  75.73
780.9  45132.00  34205.33  75.79
782.1  44952.26  34101.08  75.86
783.4  44936.32  34118.24  75.93
784.6  44935.72  34162.25  76.02
785.9  45255.62  34457.96  76.14
787.1  45836.93  34956.33  76.26
788.4  46288.94  35252.16  76.16
789.6  46219.23  35090.89  75.92
790.9  45788.99  34672.99  75.72
792.1  45296.16  34296.64  75.72
793.4  44771.54  33943.68  75.82
794.6  44415.30  33687.49  75.85
795.8  44134.47  33488.65  75.88
797.1  43801.05  33267.11  75.95
798.3  43569.08  33129.80  76.04
799.5  43411.48  33045.91  76.12
800.8  43273.13  32938.60  76.12
802.0  43071.08  32824.99  76.21
803.2  42890.28  32675.83  76.18
804.5  42742.15  32583.10  76.23
805.7  42601.95  32457.98  76.19
806.9  42426.40  32344.70  76.24
808.1  42305.67  32269.46  76.28
809.4  42221.44  32222.30  76.32
810.6  42105.70  32145.00  76.34
811.8  42062.43  32136.29  76.40
813.0  42071.08  32148.06  76.41
814.2  42081.20  32180.79  76.47
815.4  42185.03  32237.09  76.42
816.6  42225.34  32244.21  76.36
817.9  42273.21  32232.79  76.25
819.1  42166.58  32131.31  76.20
820.3  42039.03  31975.30  76.06
821.5  41905.07  31851.79  76.01
822.7  41849.58  31778.27  75.93
823.9  41838.35  31734.28  75.85
825.1  41851.34  31690.65  75.72
826.3  41890.94  31649.11  75.55
827.5  41937.05  31628.62  75.42
828.7  42011.28  31601.56  75.22
829.9  42039.57  31570.07  75.10
831.0  42140.75  31580.67  74.94
832.2  42235.78  31601.72  74.82
833.4  42305.18  31623.82  74.75
834.6  42417.19  31668.75  74.66
835.8  42496.65  31706.32  74.61
837.0  42597.61  31781.75  74.61
838.1  42745.68  31897.47  74.62
839.3  42856.00  31961.00  74.58
840.5  42989.60  32054.04  74.56
841.7  43156.80  32190.28  74.59
842.9  43298.86  32332.12  74.67
844.0  43430.88  32424.95  74.66
845.2  43568.90  32542.18  74.69
846.4  43732.15  32646.00  74.65
847.5  43960.00  32835.37  74.69
848.7  44164.79  32985.03  74.69
849.9  44393.85  33103.04  74.57
851.0  44478.08  33127.11  74.48
852.2  44569.63  33167.57  74.42
853.3  44562.81  33142.31  74.37
854.5  44594.90  33129.84  74.29
855.6  44615.97  33131.84  74.26
856.8  44687.86  33176.06  74.24
857.9  44681.40  33181.93  74.26
859.1  44832.20  33288.83  74.25
860.2  44876.88  33297.61  74.20
861.4  44954.55  33355.09  74.20
862.5  45021.69  33393.89  74.17
863.7  45150.84  33473.11  74.14
864.8  45213.35  33503.81  74.10
865.9  45167.77  33456.35  74.07
867.1  45241.43  33492.26  74.03
868.2  45295.54  33500.62  73.96
869.3  45314.27  33508.90  73.95
870.5  45282.48  33439.13  73.85
871.6  45315.83  33443.77  73.80
872.7  45413.27  33507.39  73.78
873.9  45478.16  33517.89  73.70
875.0  45456.71  33478.58  73.65
876.1  45452.45  33440.40  73.57
877.2  45498.99  33434.33  73.48
878.3  45519.98  33401.23  73.38
879.4  45563.53  33399.45  73.30
880.5  45631.08  33380.82  73.15
881.7  45596.20  33331.03  73.10
882.8  45693.96  33319.95  72.92
883.9  45722.91  33281.42  72.79
885.0  45675.63  33197.94  72.68
886.1  45712.78  33098.29  72.40
887.2  45537.58  32928.16  72.31
888.3  45475.07  32783.66  72.09
889.4  45347.40  32639.93  71.98
890.5  45259.13  32535.07  71.89
891.6  45193.70  32455.44  71.81
892.7  45201.31  32396.08  71.67
893.8  45270.56  32392.57  71.55
894.9  45248.28  32361.29  71.52
896.0  45235.90  32272.68  71.34
897.0  45257.72  32249.12  71.26
898.1  45230.13  32210.60  71.21
899.2  45252.30  32166.96  71.08
900.3  45165.90  32046.51  70.95
901.4  45101.16  31941.94  70.82
902.4  45077.20  31904.43  70.78
903.5  45018.01  31832.70  70.71
904.6  45035.56  31770.90  70.55
905.7  45038.93  31705.08  70.39
906.7  44985.82  31657.40  70.37
907.8  45025.57  31621.52  70.23
908.9  44904.57  31502.52  70.15
909.9  44897.74  31432.00  70.01
911.0  44830.08  31330.06  69.89
912.1  44749.25  31185.15  69.69
913.1  44707.00  31056.13  69.47
914.2  44554.62  30920.85  69.40
915.2  44505.45  30849.12  69.32
916.3  44491.35  30766.40  69.15
917.3  44461.10  30659.40  68.96
918.4  44383.35  30474.13  68.66
919.4  44330.69  30368.47  68.50
920.5  44315.70  30266.90  68.30
921.5  44285.78  30172.26  68.13
922.6  44268.10  30010.60  67.79
923.6  44262.16  29942.67  67.65
924.7  44333.00  29850.96  67.33
925.7  44276.22  29711.15  67.10
926.7  44252.98  29587.92  66.86
927.8  44374.33  29484.99  66.45
928.8  44502.63  29420.38  66.11
929.9  44598.23  29364.74  65.84
930.9  44802.27  29362.01  65.54
931.9  45011.35  29365.59  65.24
932.9  45355.12  29412.78  64.85
934.0  45370.16  29309.37  64.60
935.0  45397.97  29185.25  64.29
936.0  45413.73  29008.41  63.88
937.0  45319.95  28835.46  63.63
938.1  45295.44  28687.91  63.34
939.1  45257.91  28513.52  63.00
940.1  45342.90  28421.76  62.68
941.1  45568.46  28410.57  62.35
942.1  45803.34  28406.82  62.02
943.1  45999.43  28360.18  61.65
944.1  46171.28  28363.65  61.43
945.2  46338.18  28236.04  60.93
946.2  46411.22  28113.22  60.57
947.2  46518.25  28009.48  60.21
948.2  46693.82  27929.27  59.81
949.2  46838.19  27806.87  59.37
950.2  46912.95  27648.06  58.93
951.2  46909.80  27503.28  58.63
952.2  47054.57  27360.12  58.15
953.2  47260.85  27275.54  57.71
954.2  47365.65  27210.38  57.45
955.2  47408.68  27048.24  57.05
956.2  47434.65  26871.81  56.65
957.2  47543.77  26773.31  56.31
958.2  47601.59  26711.68  56.12
959.2  47735.55  26673.30  55.88
960.1  47775.14  26613.61  55.71
961.1  47870.63  26592.86  55.55
962.1  47933.44  26561.41  55.41
963.1  48032.50  26533.72  55.24
964.1  48057.21  26574.97  55.30
965.1  48243.99  26625.31  55.19
966.1  48335.33  26587.39  55.01
967.0  48410.39  26656.40  55.06
968.0  48434.88  26632.25  54.99
969.0  48556.60  26671.53  54.93
970.0  48603.65  26700.37  54.93
971.0  48737.12  26734.40  54.85
971.9  48722.90  26750.76  54.90
972.9  48879.95  26775.79  54.78
973.9  48859.53  26731.96  54.71
974.9  49044.08  26743.97  54.53
975.8  49101.73  26769.43  54.52
976.8  49135.91  26792.76  54.53
977.8  49315.41  26813.40  54.37
978.8  49372.50  26893.83  54.47
979.7  49504.50  26946.34  54.43
980.7  49626.72  27099.85  54.61
981.7  49868.69  27195.18  54.53
982.6  50026.42  27413.71  54.80
983.6  50542.44  27629.51  54.67
984.6  51139.74  27914.53  54.58
985.5  51570.00  28409.34  55.09
986.5  52881.11  28890.95  54.63
987.5  53801.49  29467.08  54.77
988.4  54737.10  30018.27  54.84
989.4  56052.04  30855.67  55.05
990.4  57074.27  31578.18  55.33
991.3  59136.61  32408.68  54.80
992.3  61232.97  32931.47  53.78
993.2  62381.81  33734.05  54.08
994.2  63759.15  34578.38  54.23
995.2  64627.45  34878.31  53.97
996.1  65405.36  34994.92  53.50
997.1  65143.00  34905.79  53.58
998.0  67149.60  34831.00  51.87
999.0  66846.51  35169.70  52.61
1000.0  67127.69  35313.92  52.61
1000.9  65712.83  35414.10  53.89
1001.9  66491.34  35070.13  52.74
1002.8  64393.95  35123.97  54.55
1003.8  65025.46  34913.00  53.69
1004.8  66172.20  34607.30  52.30
961.5  59748.86  29391.02  49.19
965.5  58598.35  28972.21  49.44
969.5  56260.49  28162.47  50.06
973.4  53913.29  27392.40  50.81
977.4  51859.95  26668.30  51.42
981.4  50850.20  26375.27  51.87
985.3  50481.20  26429.42  52.35
989.3  50535.22  26736.75  52.91
993.3  50635.09  27082.11  53.48
997.2  50595.02  27313.50  53.98
1001.2  50545.04  27530.14  54.47
1005.2  50473.33  27750.21  54.98
1009.1  50535.74  28058.61  55.52
1013.1  50697.93  28456.62  56.13
1017.1  50843.90  28862.61  56.77
1021.0  50855.49  29188.17  57.39
1025.0  50816.26  29487.47  58.03
1029.0  50641.08  29677.81  58.60
1032.9  50496.42  29871.10  59.15
1036.9  50486.34  30164.07  59.75
1040.9  50614.23  30538.23  60.34
1044.8  50848.91  30964.46  60.90
1048.8  51055.33  31343.47  61.39
1052.7  51200.97  31654.96  61.82
1056.7  51265.76  31877.30  62.18
1060.7  51328.86  32036.03  62.41
1064.6  51364.29  32147.55  62.59
1068.6  51285.22  32149.78  62.69
1072.5  51205.93  32099.80  62.69
1076.5  51155.97  32039.39  62.63
1080.4  51154.95  31961.93  62.48
1084.4  51258.31  31894.34  62.22
1088.3  51367.47  31795.10  61.90
1092.3  51376.13  31583.28  61.47
1096.2  51342.58  31346.20  61.05
1100.2  51360.86  31130.92  60.61
1104.1  51244.60  30818.27  60.14
1108.1  51175.76  30534.62  59.67
1112.0  51059.75  30195.03  59.14
1116.0  50831.30  29750.72  58.53
1119.9  50653.13  29266.00  57.78
1123.9  50703.41  28835.75  56.87
1127.8  50649.60  28184.32  55.65
1131.8  50608.23  27341.83  54.03
1135.7  50617.81  26375.23  52.11
1139.6  50606.06  25313.77  50.02
1143.6  50555.26  24293.55  48.05
1147.5  50517.05  23433.74  46.39
1151.4  50365.69  22702.66  45.08
1155.4  50355.11  22246.26  44.18
1159.3  50376.78  21966.29  43.60
1163.2  50207.59  21698.89  43.22
1167.2  50161.80  21565.68  42.99
1171.1  50174.37  21478.92  42.81
1175.0  50101.08  21372.66  42.66
1179.0  50065.70  21280.70  42.51
1182.9  50165.17  21233.23  42.33
1186.8  50159.61  21163.25  42.19
1190.7  49934.95  20998.55  42.05
1194.7  49665.47  20835.35  41.95
1198.6  49438.62  20719.55  41.91
1202.5  49264.40  20656.07  41.93
1206.4  49122.14  20633.73  42.00
1210.3  49037.26  20631.22  42.07
1214.2  48930.30  20649.21  42.20
1218.2  48765.56  20671.01  42.39
1222.1  48630.48  20712.20  42.59
1226.0  48538.40  20774.36  42.80
1229.9  48450.48  20831.12  42.99
1233.8  48352.03  20874.38  43.17
1237.7  48317.50  20930.28  43.32
1241.6  48229.08  20972.04  43.48
1245.5  48061.09  20972.79  43.64
1249.4  47934.98  20963.01  43.73
1253.3  47803.87  20957.18  43.84
1257.2  47735.46  20963.97  43.92
1261.1  47624.11  20944.66  43.98
1265.0  47490.52  20901.86  44.01
1268.9  47304.07  20797.38  43.97
1272.8  47372.70  20785.05  43.88
1276.7  47590.81  20818.49  43.74
1280.6  47691.16  20771.26  43.55
1284.5  47615.01  20618.49  43.30
1288.4  47591.67  20469.03  43.01
1292.3  47467.75  20252.83  42.67
1296.2  47318.59  19999.46  42.27
1300.1  47148.87  19702.94  41.79
1303.9  46897.39  19337.07  41.23
1307.8  46639.44  18951.22  40.63
1311.7  46386.67  18540.33  39.97
1315.6  46123.85  18102.69  39.25
1319.5  45848.18  17639.40  38.47
1323.3  45606.50  17172.02  37.65
1327.2  45386.16  16705.79  36.81
1331.1  45132.53  16228.53  35.96
1335.0  44824.46  15734.77  35.10
1338.8  44600.56  15299.44  34.30
1342.7  44421.07  14908.00  33.56
1346.5  44042.02  14472.34  32.86
1350.4  43720.62  14083.23  32.21
1354.3  43279.60  13660.09  31.56
1358.1  42799.92  13234.12  30.92
1362.0  42533.76  12873.35  30.27
1365.8  42447.40  12550.38  29.57
1369.7  42569.31  12251.75  28.78
1373.5  42515.11  11815.78  27.79
1377.4  42239.08  11215.85  26.55
1381.2  42024.35  10511.47  25.01
1385.1  42007.68  9810.64  23.35
1389.0  41913.21  9098.23  21.71
1392.8  41686.58  8365.27  20.07
1396.6  41522.45  7697.05  18.54
1400.5  41297.26  7106.35  17.21
1404.3  41119.22  6621.71  16.10
1408.2  41089.83  6243.02  15.19
1412.0  41038.18  5941.75  14.48
1415.8  41063.56  5724.82  13.94
1419.6  41020.11  5544.31  13.52
1423.5  40984.07  5412.58  13.21
1427.3  40938.38  5308.82  12.97
1431.1  40915.35  5231.25  12.79
1434.9  40812.08  5167.51  12.66
1438.8  40755.58  5127.73  12.58
1442.6  40720.04  5103.76  12.53
1446.4  40579.53  5066.39  12.49
1450.2  40476.97  5048.70  12.47
1454.0  40349.16  5035.00  12.48
1457.8  40313.93  5040.76  12.50
1461.6  40291.52  5070.88  12.59
1465.4  40157.17  5098.96  12.70
1469.2  39958.10  5130.89  12.84
1473.0  39808.79  5182.45  13.02
1476.8  39739.71  5272.05  13.27
1480.7  39668.27  5374.64  13.55
1484.4  39532.92  5476.56  13.85
1488.2  39418.92  5599.68  14.21
1492.0  39281.08  5727.45  14.58
1495.8  39157.30  5853.58  14.95
1499.6  39041.55  5962.62  15.27
1503.4  38891.42  6047.19  15.55
1507.2  38758.78  6123.83  15.80
1510.9  38603.27  6180.83  16.01
1514.7  38431.80  6223.88  16.19
1518.5  38296.78  6289.73  16.42
1522.3  38148.01  6371.03  16.70
1526.0  38038.86  6479.49  17.03
1529.8  37977.87  6605.68  17.39
1533.6  37845.65  6711.12  17.73
1537.3  37710.11  6808.44  18.05
1541.1  37580.52  6903.02  18.37
1544.8  37449.60  7000.00  18.69
1548.6  37314.89  7088.59  19.00
1552.4  37219.38  7170.44  19.27
1556.1  37135.69  7238.84  19.49
1559.9  37030.39  7296.11  19.70
1563.6  36900.49  7370.07  19.97
1567.3  36782.10  7464.77  20.29
1571.1  36560.28  7526.18  20.59
1574.8  36404.14  7599.41  20.88
1578.6  36302.38  7682.20  21.16
1582.3  36157.52  7731.60  21.38
1586.0  36009.48  7765.44  21.56
1589.8  35863.84  7794.64  21.73
1593.5  35710.53  7821.71  21.90
1597.2  35575.62  7856.07  22.08
1600.9  35432.24  7893.06  22.28
1604.7  35280.85  7922.69  22.46
1608.4  35142.04  7957.44  22.64
1612.1  34980.47  7985.17  22.83
1615.8  34834.07  8008.77  22.99
1619.5  34752.20  8046.99  23.16
1623.2  34595.03  8068.39  23.32
1626.9  34406.93  8082.21  23.49
1630.6  34230.90  8097.32  23.66
1634.3  34081.71  8109.97  23.80
1638.0  33920.36  8100.16  23.88
1641.7  33748.10  8080.33  23.94
1645.4  33556.70  8061.39  24.02
1649.1  33353.05  8031.91  24.08
1652.8  33189.89  8005.42  24.12
1656.4  33018.59  7970.73  24.14
1660.1  32845.97  7939.47  24.17
1663.8  32642.92  7898.46  24.20
1667.5  32483.35  7859.99  24.20
1671.1  32351.26  7824.04  24.18
1674.8  32144.07  7766.56  24.16
1678.5  32080.00  7737.81  24.12
1682.1  32102.13  7721.40  24.05
1685.8  32123.16  7698.23  23.96
1689.5  32018.65  7638.01  23.85
1693.1  31881.24  7562.67  23.72
1696.8  31732.38  7486.00  23.59
1700.4  31582.94  7404.84  23.45
1704.0  31466.76  7321.91  23.27
1707.7  31189.67  7195.04  23.07
1711.3  30882.00  7057.79  22.85
1715.0  30659.79  6944.26  22.65
1718.6  30484.31  6847.77  22.46
1722.2  30333.58  6754.44  22.27
1725.9  30181.80  6657.47  22.06
1729.5  30037.98  6578.95  21.90
1733.1  29910.73  6524.48  21.81
1736.7  29788.38  6478.90  21.75
1740.3  29614.18  6410.62  21.65
1744.0  29528.30  6351.80  21.51
1747.5  29373.44  6265.22  21.33
1751.2  29138.63  6152.47  21.11
1754.8  28975.37  6055.52  20.90
1758.4  28834.48  5964.77  20.69
1762.0  28639.33  5875.35  20.51
1765.5  28498.38  5812.44  20.40
1769.1  28452.00  5777.60  20.31
1772.7  28378.96  5736.16  20.21
1776.3  28252.73  5683.19  20.12
1779.9  28119.54  5633.88  20.04
1783.5  28061.20  5605.63  19.98
1787.0  27938.82  5562.77  19.91
1790.6  27774.17  5520.01  19.87
1794.2  27666.21  5495.40  19.86
1797.8  27558.84  5470.71  19.85
1801.3  27465.68  5449.87  19.84
1804.9  27315.75  5425.88  19.86
1808.4  27221.13  5416.29  19.90
1812.0  27071.27  5389.28  19.91
1815.5  26907.62  5357.99  19.91
1819.1  26703.43  5313.59  19.90
1822.6  26545.43  5276.57  19.88
1826.2  26400.51  5248.59  19.88
1829.7  26207.46  5206.47  19.87
1833.2  25952.41  5137.80  19.80
1836.8  25712.51  5067.34  19.71
1840.3  25567.16  5020.58  19.64
1843.8  25454.03  4987.22  19.59
1847.3  25371.56  4951.80  19.52
1850.8  25264.51  4900.22  19.40
1854.3  25105.60  4825.73  19.22
1857.8  25027.60  4721.60  18.87
1861.3  25027.70  4573.36  18.27
1864.8  24948.54  4364.49  17.49
1868.3  24715.93  4071.58  16.47
1871.8  24529.92  3758.08  15.32
1875.3  24489.01  3475.60  14.19
1878.8  24485.84  3225.08  13.17
1882.3  24423.29  2989.59  12.24
1885.8  24245.59  2738.57  11.30
1889.3  24030.42  2527.32  10.52
1892.7  23852.68  2393.53  10.03
1896.2  23673.74  2299.20  9.71
1899.7  23427.69  2239.01  9.56
1903.1  23323.61  2268.11  9.72
1906.6  23396.53  2396.35  10.24
1910.0  23683.33  2606.00  11.00
1913.5  24138.15  2932.59  12.15
1917.0  24628.98  3421.72  13.89
1920.4  25146.40  3852.08  15.32
1923.8  25520.19  4154.03  16.28
1871.2  22263.77  2884.56  12.96
1873.9  22507.55  2741.86  12.18
1876.7  22626.01  2612.74  11.55
1879.5  22737.83  2452.86  10.79
1882.3  22382.76  2291.50  10.24
1885.1  22317.18  2132.01  9.55
1887.8  22505.15  1990.19  8.84
1890.6  22306.26  1897.19  8.51
1893.4  22256.67  1786.89  8.03
1896.2  22163.50  1677.91  7.57
1898.9  22083.42  1644.37  7.45
1901.7  21937.94  1591.07  7.25
1904.5  22143.94  1557.02  7.03
1907.2  22059.00  1521.58  6.90
1910.0  21927.95  1484.34  6.77
1912.7  21918.25  1454.54  6.64
1915.5  21816.04  1427.56  6.54
1918.2  21741.95  1409.86  6.48
1921.0  21589.30  1383.36  6.41
1923.7  21620.81  1381.80  6.39
1926.5  21581.93  1376.48  6.38
1929.2  21568.04  1372.45  6.36
1932.0  21551.20  1377.76  6.39
1934.7  21508.34  1381.99  6.43
1937.4  21385.99  1375.07  6.43
1940.2  21322.79  1376.85  6.46
1942.9  21412.44  1400.70  6.54
1945.6  21432.94  1409.33  6.58
1948.3  21347.13  1418.93  6.65
1951.1  21319.83  1442.79  6.77
1953.8  21321.00  1451.00  6.81
1956.5  21174.65  1450.58  6.85
1959.2  21255.91  1478.06  6.95
1961.9  21274.22  1493.97  7.02
1964.6  21161.18  1519.24  7.18
1967.3  21232.43  1544.64  7.27
1970.0  21063.36  1541.17  7.32
1972.8  20962.32  1558.10  7.43
1975.5  21019.32  1575.52  7.50
1978.2  20951.00  1596.27  7.62
1980.9  20833.51  1612.97  7.74
1983.5  20753.87  1621.88  7.81
1986.2  20730.84  1642.21  7.92
1988.9  20710.47  1666.46  8.05
1991.6  20560.54  1670.41  8.12
1994.3  20429.18  1676.20  8.20
1997.0  20463.02  1723.27  8.42
1999.7  20411.81  1744.06  8.54
2002.3  20392.69  1749.01  8.58
2005.0  20300.64  1773.94  8.74
2007.7  20215.73  1789.76  8.85
2010.4  20150.59  1791.99  8.89
2013.0  20054.41  1804.68  9.00
2015.7  19971.23  1821.51  9.12
2018.4  19850.99  1835.33  9.25
2021.0  19776.67  1860.56  9.41
2023.7  19665.12  1870.31  9.51
2026.4  19623.72  1868.39  9.52
2029.0  19549.52  1891.31  9.67
2031.7  19389.93  1905.00  9.82
2034.3  19392.75  1923.78  9.92
2037.0  19277.12  1937.66  10.05
2039.6  19203.81  1933.70  10.07
2042.3  19169.68  1944.30  10.14
2044.9  19085.22  1960.70  10.27
2047.5  19057.17  1968.18  10.33
2050.2  18939.20  1973.07  10.42
2052.8  18894.40  1990.80  10.54
2055.4  18768.37  1996.66  10.64
2058.1  18622.80  1988.93  10.68
2060.7  18569.98  1999.36  10.77
2063.3  18475.60  2010.11  10.88
2065.9  18427.79  2020.24  10.96
2068.6  18352.42  2028.61  11.05
2071.2  18299.61  2034.84  11.12
2073.8  18217.15  2032.52  11.16
2076.4  18153.52  2058.22  11.34
2079.0  18135.74  2079.40  11.47
2081.6  18151.63  2076.24  11.44
2084.2  18112.28  2104.02  11.62
2086.8  17948.60  2109.00  11.75
2089.4  17865.33  2098.19  11.74
2092.1  17782.00  2112.72  11.88
2094.7  17712.75  2129.11  12.02
2097.2  17685.67  2134.45  12.07
2099.8  17677.80  2149.23  12.16
2102.4  17557.58  2155.25  12.28
2105.0  17419.20  2147.95  12.33
2107.6  17352.05  2157.14  12.43
2110.2  17317.12  2153.99  12.44
2112.8  17308.85  2169.45  12.53
2115.3  17299.79  2209.26  12.77
2117.9  17305.54  2223.65  12.85
2120.5  17283.04  2223.18  12.86
2123.1  17169.75  2217.15  12.91
2125.6  17130.75  2228.46  13.01
2128.2  17041.98  2218.41  13.02
2130.8  16938.68  2229.83  13.16
2133.3  16907.73  2240.09  13.25
2135.9  16811.63  2223.90  13.23
2138.4  16669.29  2232.59  13.39
2141.0  16557.51  2219.42  13.40
2143.6  16519.94  2230.02  13.50
2146.1  16331.26  2220.40  13.60
2148.7  16166.35  2194.67  13.58
2151.2  16200.80  2216.62  13.68
2153.8  16223.65  2224.18  13.71
2156.3  16092.71  2204.17  13.70
2158.8  16012.97  2200.23  13.74
2161.4  15977.02  2212.23  13.85
2163.9  15879.72  2208.30  13.91
2166.4  15806.34  2200.74  13.92
2169.0  15776.77  2201.73  13.96
2171.5  15691.03  2180.05  13.89
2174.0  15580.08  2174.73  13.96
2176.5  15568.93  2186.69  14.05
2179.1  15528.15  2187.47  14.09
2181.6  15436.46  2169.72  14.06
2184.1  15393.84  2164.21  14.06
2186.6  15412.36  2176.96  14.12
2189.1  15330.96  2137.86  13.94
2191.6  15265.13  2153.82  14.11
2194.1  15289.63  2174.58  14.22
2196.6  15291.79  2143.30  14.02
2199.2  15355.64  2156.95  14.05
2201.7  15282.97  2146.61  14.05
2204.1  15217.08  2133.03  14.02
2206.6  15263.16  2163.40  14.17
2209.1  15196.78  2157.45  14.20
2211.6  15154.34  2144.42  14.15
2214.1  15142.04  2158.08  14.25
2216.6  15136.36  2139.73  14.14
2219.1  15121.17  2116.94  14.00
2221.6  15017.30  2103.82  14.01
2224.0  14973.30  2091.69  13.97
2226.5  14953.65  2069.92  13.84
2229.0  14990.65  2074.63  13.84
2231.5  14856.57  2049.05  13.79
2233.9  14819.93  2006.26  13.54
2236.4  14830.12  2002.05  13.50
2238.9  14725.00  2011.13  13.66
2241.3  14738.24  1987.38  13.48
2243.8  14703.26  1961.47  13.34
2246.2  14560.76  1947.38  13.37
2248.7  14543.49  1920.62  13.21
2251.2  14547.02  1890.92  13.00
2253.6  14461.44  1877.76  12.98
2256.1  14411.52  1872.64  12.99
2258.5  14448.51  1844.00  12.76
2260.9  14358.24  1807.57  12.59
2263.4  14286.28  1783.54  12.48
2265.8  14286.52  1783.57  12.48
2268.3  14242.68  1762.54  12.38
2270.7  14293.95  1733.65  12.13
2273.1  14208.68  1721.92  12.12
2275.6  14138.88  1706.24  12.07
2278.0  14162.68  1700.03  12.00
2280.4  14119.54  1698.40  12.03
2282.8  13992.20  1645.46  11.76
2285.3  14040.77  1614.95  11.50
2287.7  14128.29  1628.39  11.53
2290.1  13998.75  1606.37  11.48
2292.5  13976.47  1548.97  11.08
2294.9  14012.61  1551.69  11.07
2297.3  13889.96  1534.54  11.05
2299.7  13787.58  1475.36  10.70
2302.1  13749.17  1469.20  10.69
2304.5  13602.40  1436.03  10.56
2306.9  13496.56  1385.07  10.26
2309.3  13451.64  1371.42  10.20
2311.7  13329.30  1364.59  10.24
2314.1  13154.03  1337.72  10.17
2316.5  13124.14  1365.87  10.41
2318.9  13145.46  1392.72  10.59
2321.3  13101.23  1373.38  10.48
2323.7  13118.10  1377.70  10.50
2326.1  13081.38  1372.89  10.49
2328.4  13108.17  1362.89  10.40
2330.8  13202.52  1359.24  10.30
2333.2  13104.54  1339.83  10.22
2335.6  13023.78  1311.93  10.07
2337.9  13062.53  1304.86  9.99
2340.3  13002.24  1297.29  9.98
2342.7  12902.35  1280.79  9.93
2345.0  12884.39  1258.43  9.77
2347.4  12860.50  1208.42  9.40
2349.7  12661.22  1186.10  9.37
2352.1  12633.43  1207.88  9.56
2354.4  12658.59  1189.21  9.39
2356.8  12578.77  1178.45  9.37
2359.2  12527.67  1180.11  9.42
2361.5  12479.13  1156.28  9.27
2363.8  12494.29  1146.23  9.17
2366.2  12489.73  1146.00  9.18
2368.5  12451.10  1136.23  9.13
2370.9  12453.76  1112.37  8.93
2373.2  12415.30  1139.16  9.18
2375.5  12276.33  1119.19  9.12
2377.9  12211.78  1077.29  8.82
2380.2  12242.21  1075.17  8.78
2382.5  12139.99  1053.79  8.68
2384.8  12068.64  1031.63  8.55
2387.2  12086.52  1050.19  8.69
2389.5  12068.58  1060.80  8.79
2391.8  12016.43  1021.97  8.50
2394.1  11909.46  1010.85  8.49
2396.4  11863.59  995.09  8.39
2398.7  11940.46  972.71  8.15
2401.0  11823.50  993.95  8.41
2403.3  11693.04  994.34  8.50
2405.6  11741.09  971.34  8.27
2407.9  11668.29  951.90  8.16
2410.2  11575.79  957.55  8.27
2412.5  11525.22  923.17  8.01
2414.8  11512.67  924.30  8.03
2417.1  11505.36  932.54  8.11
2419.4  11477.63  894.38  7.79
2421.7  11364.91  900.64  7.92
2424.0  11316.90  892.88  7.89
2426.2  11347.35  870.27  7.67
2428.5  11281.78  849.11  7.53
2430.8  11243.35  853.83  7.59
2433.1  11179.50  864.78  7.74
2435.4  11100.48  854.17  7.69
2437.6  11066.91  811.28  7.33
2439.9  10932.41  802.95  7.34
2442.2  10967.11  828.60  7.56
2444.4  10975.51  817.47  7.45
2446.7  10909.12  770.88  7.07
2448.9  10931.40  773.76  7.08
2451.2  10853.16  758.91  6.99
2453.4  10787.73  733.25  6.80
2455.7  10721.98  737.91  6.88
2457.9  10647.12  728.53  6.84
2460.2  10665.45  713.09  6.69
2462.4  10576.80  690.56  6.53
2464.7  10503.38  704.43  6.71
2466.9  10471.02  682.66  6.52
2469.2  10480.86  678.42  6.47
2471.4  10359.57  698.08  6.74
2473.6  10250.05  676.20  6.60
2475.9  10220.96  666.04  6.52
2478.1  10124.53  642.18  6.34
2480.3  10080.49  621.91  6.17
2482.5  10057.71  645.73  6.42
2484.8  9961.32  631.08  6.34
2487.0  9924.93  617.22  6.22
2489.2  9935.52  655.83  6.60
2491.4  9875.23  645.54  6.54
2493.6  9884.14  616.61  6.24
2495.8  9866.24  630.83  6.39
2498.0  9849.60  624.21  6.34
2500.2  9865.68  595.37  6.03
2502.4  10096.56  618.64  6.13
2504.6  10244.49  622.87  6.08
2506.8  10345.65  610.48  5.90
