/*** Spectra Vista SIG Data ***/
name= S4.sig
comm= Resampled spectral data SIG file reprocesed for matching/overlap;Averaged Ref/Tar of files: GD3S10,GD3S11,GD3S12
data=
346.0  598.78  167.21  27.93
356.0  924.17  189.85  20.54
366.0  1234.61  206.13  16.70
376.0  1691.57  223.57  13.22
386.0  2110.32  222.33  10.54
396.0  2699.64  283.54  10.50
406.0  3258.06  286.38  8.79
416.0  3980.12  367.96  9.24
426.0  4560.62  424.18  9.30
436.0  5560.57  509.57  9.16
446.0  6459.13  648.49  10.04
456.0  7345.42  811.28  11.04
466.0  8824.96  1020.69  11.57
476.0  10121.58  1193.78  11.79
486.0  10943.49  1351.59  12.35
496.0  12761.25  1817.78  14.24
506.0  14311.81  2696.73  18.84
516.0  15112.04  3896.84  25.79
526.0  16957.18  5554.62  32.76
536.0  19355.60  7165.46  37.02
546.0  21330.59  8382.94  39.30
556.0  21581.55  8767.82  40.63
566.0  23226.44  9306.48  40.07
576.0  25810.52  9747.66  37.77
586.0  27755.51  9951.48  35.85
596.0  29194.08  10095.71  34.58
606.0  29534.45  9798.72  33.18
616.0  31318.23  9583.80  30.60
626.0  34410.58  9672.69  28.11
636.0  34069.21  9527.83  27.97
646.0  34679.65  8929.59  25.75
656.0  34069.42  7480.80  21.96
666.0  35802.93  6000.15  16.76
676.0  37841.78  5580.90  14.75
686.0  40854.13  8009.56  19.61
696.0  41747.28  15502.52  37.13
706.0  41971.06  22703.35  54.09
716.0  41223.34  26476.24  64.23
726.0  40067.78  28022.84  69.94
736.0  39511.29  28607.00  72.40
746.0  41985.01  31059.51  73.98
756.0  42844.63  31813.99  74.25
766.0  44461.06  33437.07  75.21
776.0  45318.27  34252.43  75.58
786.0  45304.05  34499.48  76.15
796.0  44083.17  33454.56  75.89
806.0  42558.06  32429.66  76.20
816.0  42205.19  32240.65  76.39
826.0  41881.04  31659.49  75.59
836.0  42513.48  31718.89  74.61
846.0  43677.73  32611.39  74.66
856.0  44639.93  33146.58  74.25
866.0  45173.91  33459.34  74.07
876.0  45452.84  33443.87  73.58
886.0  45709.40  33107.35  72.43
896.0  45235.90  32272.68  71.34
906.0  45023.00  31690.78  70.39
916.0  44495.20  30788.96  69.20
926.0  44269.25  29674.18  67.03
936.0  45413.73  29008.41  63.88
946.0  46396.61  28137.79  60.65
956.0  47429.46  26907.10  56.73
966.0  48326.20  26591.18  55.02
976.0  49108.57  26774.10  54.52
986.0  50490.65  26483.20  52.45
996.0  50607.35  27242.30  53.83
1006.0  50486.13  27813.47  55.09
1016.0  50803.76  28750.97  56.59
1026.0  50772.47  29535.06  58.17
1036.0  50488.61  30098.15  59.61
1046.0  50910.83  31078.16  61.04
1056.0  51254.42  31838.39  62.12
1066.0  51336.62  32148.33  62.62
1076.0  51162.22  32046.94  62.64
1086.0  51303.09  31853.63  62.09
1096.0  51344.30  31358.36  61.07
1106.0  51211.90  30683.53  59.91
1116.0  50831.30  29750.72  58.53
1126.0  50674.44  28484.99  56.21
1136.0  50616.91  26293.57  51.95
1146.0  50531.75  23764.43  47.03
1156.0  50358.44  22203.19  44.09
1166.0  50175.54  21605.64  43.06
1176.0  50092.24  21349.67  42.62
1186.0  50160.75  21177.61  42.22
1196.0  49589.85  20796.75  41.94
1206.0  49136.73  20636.02  42.00
1216.0  48856.16  20659.02  42.29
1226.0  48538.40  20774.36  42.80
1236.0  48332.55  20905.91  43.25
1246.0  48044.92  20971.54  43.65
1256.0  47756.51  20961.88  43.89
1266.0  47442.71  20875.07  44.00
1276.0  47551.66  20812.49  43.77
1286.0  47606.03  20561.01  43.19
1296.0  47326.24  20012.45  42.29
1306.0  46758.50  19129.31  40.91
1316.0  46095.57  18055.17  39.17
1326.0  45453.96  16849.24  37.07
1336.0  44765.54  15620.21  34.89
1346.0  44091.89  14529.66  32.95
1356.0  43065.01  13469.53  31.28
1366.0  42453.65  12535.07  29.53
1376.0  42338.17  11431.21  27.00
1386.0  41985.88  9646.23  22.97
1396.0  41548.36  7802.56  18.78
1406.0  41106.41  6456.64  15.71
1416.0  41061.27  5715.32  13.92
1426.0  40954.01  5344.32  13.05
1436.0  40796.14  5156.29  12.64
1446.0  40594.32  5070.32  12.49
1456.0  40330.62  5038.03  12.49
1466.0  40125.74  5104.00  12.72
1476.0  39754.25  5253.19  13.21
1486.0  39484.92  5528.40  14.00
1496.0  39151.21  5859.32  14.97
1506.0  38800.67  6099.63  15.72
1516.0  38385.61  6246.41  16.27
1526.0  38038.86  6479.49  17.03
1536.0  37757.73  6774.25  17.94
1546.0  37407.06  7027.98  18.79
1556.0  37137.95  7236.99  19.49
1566.0  36823.70  7431.50  20.18
1576.0  36372.01  7625.55  20.97
1586.0  36009.48  7765.44  21.56
1596.0  35619.37  7844.93  22.02
1606.0  35232.08  7934.90  22.52
1616.0  34829.65  8010.84  23.00
1626.0  34452.68  8078.85  23.45
1636.0  34007.58  8105.46  23.83
1646.0  33523.68  8056.61  24.03
1656.0  33037.62  7974.58  24.14
1666.0  32548.04  7875.59  24.20
1676.0  32123.29  7757.24  24.15
1686.0  32117.51  7694.98  23.96
1696.0  31764.57  7502.58  23.62
1706.0  31316.98  7253.33  23.16
1716.0  30611.05  6917.46  22.60
1726.0  30177.81  6655.29  22.05
1736.0  29812.17  6487.76  21.76
1746.0  29439.81  6302.33  21.41
1756.0  28928.41  6025.27  20.83
1766.0  28491.94  5807.60  20.38
1776.0  28263.25  5687.60  20.12
1786.0  27973.79  5575.02  19.93
1796.0  27612.53  5483.06  19.86
1806.0  27286.01  5422.87  19.87
1816.0  26879.26  5351.82  19.91
1826.0  26408.56  5250.14  19.88
1836.0  25765.82  5083.00  19.73
1846.0  25402.19  4964.96  19.55
1856.0  25067.72  4775.15  19.05
1866.0  24868.79  4264.07  17.15
1876.0  24488.38  3425.50  13.99
1886.0  24233.30  2726.50  11.25
1896.0  23683.96  2304.59  9.73
1906.0  22096.75  1537.33  6.96
1916.0  21802.32  1424.28  6.53
1926.0  21588.87  1377.43  6.38
1936.0  21449.43  1378.66  6.43
1946.0  21420.23  1410.75  6.59
1956.0  21201.75  1450.66  6.84
1966.0  21198.12  1532.41  7.23
1976.0  21006.67  1579.36  7.52
1986.0  20732.55  1640.70  7.91
1996.0  20450.49  1705.84  8.34
2006.0  20269.19  1779.80  8.78
2016.0  19957.87  1823.05  9.13
2026.0  19629.85  1868.67  9.52
2036.0  19319.95  1932.52  10.00
2046.0  19073.35  1963.86  10.30
2056.0  18736.02  1994.94  10.65
2066.0  18425.00  2020.55  10.97
2076.0  18163.31  2054.27  11.31
2086.0  17998.96  2107.47  11.71
2096.0  17698.67  2131.89  12.05
2106.0  17393.37  2151.48  12.37
2116.0  17301.34  2213.13  12.79
2126.0  17117.10  2226.91  13.01
2136.0  16805.93  2224.25  13.23
2146.0  16338.81  2220.79  13.59
2156.0  16108.43  2206.57  13.70
2166.0  15818.08  2201.95  13.92
2176.0  15571.16  2184.30  14.03
2186.0  15407.91  2173.90  14.11
2196.0  15291.27  2150.81  14.07
2206.0  15252.10  2156.11  14.14
2216.0  15137.72  2144.13  14.16
2226.0  14957.58  2074.27  13.87
2236.0  14828.49  2002.72  13.51
2246.0  14572.63  1948.55  13.37
2256.0  14413.52  1872.85  12.99
2266.0  14283.01  1781.89  12.48
2276.0  14142.85  1705.21  12.06
2286.0  14066.30  1618.87  11.51
2296.0  13956.39  1543.83  11.06
2306.0  13536.25  1404.18  10.37
2316.0  13130.37  1360.01  10.36
2326.0  13082.91  1373.09  10.50
2336.0  13030.52  1310.70  10.06
2346.0  12874.44  1237.59  9.61
2356.0  12605.38  1182.04  9.38
2366.0  12490.11  1146.02  9.18
2376.0  12262.88  1110.46  9.06
2386.0  12077.58  1040.91  8.62
2396.0  11871.57  997.83  8.41
2406.0  11728.43  967.96  8.25
2416.0  11508.86  928.60  8.07
2426.0  11344.58  872.32  7.69
2436.0  11091.32  842.47  7.60
2446.0  10929.32  785.06  7.18
2456.0  10711.77  736.63  6.88
2466.0  10484.26  691.57  6.60
2476.0  10216.57  664.95  6.51
2486.0  9941.47  623.52  6.27
2496.0  9864.73  630.23  6.39
2506.0  10308.86  614.99  5.97
