/*** Spectra Vista SIG Data ***/
name= RS.sig
comm= Averaged Ref/Tar of files: RD2S10,RD2S11,RD2S12
data=
346.4  509.60  149.17  29.27
347.9  549.06  144.85  26.38
349.5  608.40  144.56  23.76
351.1  655.20  147.16  22.46
352.6  708.40  153.38  21.65
354.2  752.68  158.17  21.01
355.7  818.30  165.01  20.16
357.3  873.81  172.22  19.71
358.8  891.23  175.34  19.67
360.4  967.31  171.77  17.76
361.9  1009.93  176.45  17.47
363.5  1059.53  174.28  16.45
365.1  1102.67  175.69  15.93
366.6  1156.59  183.56  15.87
368.2  1218.77  172.35  14.14
369.7  1306.00  174.68  13.38
371.3  1379.56  183.28  13.29
372.8  1457.48  183.15  12.57
374.4  1528.58  187.45  12.26
375.9  1575.56  183.15  11.62
377.4  1632.76  188.10  11.52
379.0  1683.54  182.46  10.84
380.5  1741.87  181.06  10.39
382.1  1805.51  182.72  10.12
383.6  1862.60  178.61  9.59
385.2  1949.75  179.21  9.19
386.7  2036.04  181.40  8.91
388.3  2135.96  185.24  8.67
389.8  2212.47  187.58  8.48
391.3  2314.34  194.95  8.42
392.9  2392.65  200.10  8.36
394.4  2474.90  207.73  8.39
395.9  2552.82  219.80  8.61
397.5  2664.75  227.72  8.55
399.0  2774.82  228.15  8.22
400.6  2852.64  218.85  7.67
402.1  2910.24  210.27  7.23
403.6  2965.71  202.19  6.82
405.1  3036.77  199.56  6.57
406.7  3133.76  204.21  6.52
408.2  3234.33  206.78  6.39
409.7  3330.88  212.43  6.38
411.3  3437.91  218.03  6.34
412.8  3528.93  225.55  6.39
414.3  3634.54  230.88  6.35
415.8  3740.00  236.67  6.33
417.4  3868.37  241.20  6.24
418.9  3954.39  244.15  6.17
420.4  4037.85  246.76  6.11
421.9  4106.74  249.66  6.08
423.5  4196.00  243.62  5.81
425.0  4263.51  244.98  5.75
426.5  4364.50  244.03  5.59
428.0  4488.82  244.25  5.44
429.5  4615.58  246.22  5.33
431.1  4756.23  252.84  5.32
432.6  4917.76  259.22  5.27
434.1  5064.68  260.84  5.15
435.6  5199.35  268.97  5.17
437.1  5333.25  275.60  5.17
438.6  5454.84  281.65  5.16
440.1  5584.70  286.47  5.13
441.6  5717.14  294.03  5.14
443.1  5852.25  298.01  5.09
444.7  5982.11  304.14  5.08
446.2  6104.50  310.84  5.09
447.7  6213.60  320.75  5.16
449.2  6315.84  320.76  5.08
450.7  6414.72  319.97  4.99
452.2  6543.45  318.98  4.87
453.7  6682.65  320.04  4.79
455.2  6842.54  324.90  4.75
456.7  7029.44  333.23  4.74
458.2  7231.16  339.60  4.70
459.7  7428.75  350.00  4.71
461.2  7633.63  355.65  4.66
462.7  7815.14  369.04  4.72
464.2  8000.76  376.98  4.71
465.7  8191.53  385.20  4.70
467.2  8352.58  394.30  4.72
468.7  8552.00  406.67  4.76
470.2  8711.17  419.74  4.82
471.7  8854.00  434.63  4.91
473.2  9050.37  443.57  4.90
474.6  9252.88  441.17  4.77
476.1  9378.88  439.19  4.68
477.6  9464.51  433.91  4.58
479.1  9567.20  436.06  4.56
480.6  9658.16  437.12  4.53
482.1  9797.74  441.51  4.51
483.6  9963.22  442.54  4.44
485.1  10140.49  447.89  4.42
486.6  10356.19  457.46  4.42
488.0  10562.50  463.94  4.39
489.5  10784.97  476.97  4.42
491.0  10998.86  484.02  4.40
492.5  11224.98  496.80  4.43
494.0  11462.99  507.94  4.43
495.4  11663.85  517.55  4.44
496.9  11870.36  527.72  4.45
498.4  12074.30  537.37  4.45
499.9  12278.41  549.03  4.47
501.4  12476.75  555.20  4.45
502.8  12664.51  565.72  4.47
504.3  12846.60  570.90  4.44
505.8  13033.73  583.89  4.48
507.2  13172.68  589.97  4.48
508.7  13289.99  593.07  4.46
510.2  13412.81  596.75  4.45
511.6  13494.72  597.55  4.43
513.1  13630.43  603.08  4.42
514.6  13795.53  605.24  4.39
516.0  13946.28  603.38  4.33
517.5  14135.83  607.23  4.30
519.0  14365.19  612.99  4.27
520.5  14579.60  621.29  4.26
521.9  14828.55  628.87  4.24
523.4  15093.49  640.93  4.25
524.8  15349.14  651.70  4.25
526.3  15633.70  662.25  4.24
527.8  15915.89  677.61  4.26
529.2  16178.21  689.34  4.26
530.7  16455.24  702.76  4.27
532.1  16698.15  713.77  4.27
533.6  16994.07  729.14  4.29
535.0  17295.55  742.95  4.30
536.5  17581.25  759.59  4.32
538.0  17895.84  775.25  4.33
539.4  18160.64  792.88  4.37
540.9  18488.86  813.98  4.40
542.3  18738.28  828.59  4.42
543.8  18940.29  838.61  4.43
545.2  19020.35  840.21  4.42
546.6  19057.19  842.32  4.42
548.1  19121.11  844.07  4.41
549.5  19166.91  843.25  4.40
551.0  19217.70  846.15  4.40
552.4  19311.21  849.89  4.40
553.9  19371.38  852.64  4.40
555.3  19461.20  857.61  4.41
556.8  19596.88  864.41  4.41
558.2  19743.75  871.88  4.42
559.6  19902.71  879.96  4.42
561.1  20117.50  894.56  4.45
562.5  20332.52  911.02  4.48
564.0  20611.34  929.87  4.51
565.4  20865.50  949.53  4.55
566.8  21177.73  974.71  4.60
568.3  21463.05  999.59  4.66
569.7  21776.78  1031.79  4.74
571.1  22080.65  1060.47  4.80
572.6  22373.82  1095.39  4.90
574.0  22675.95  1130.25  4.98
575.4  22958.44  1167.47  5.09
576.9  23231.09  1205.24  5.19
578.3  23477.03  1248.57  5.32
579.7  23721.74  1292.93  5.45
581.1  23920.49  1340.19  5.60
582.6  24132.47  1391.15  5.76
584.0  24305.80  1448.31  5.96
585.4  24549.94  1509.01  6.15
586.8  24845.17  1575.70  6.34
588.3  25201.80  1655.55  6.57
589.7  25517.70  1726.14  6.76
591.1  25735.55  1801.01  7.00
592.5  25883.00  1866.56  7.21
594.0  25998.42  1934.73  7.44
595.4  26057.54  2004.15  7.69
596.8  26115.38  2077.79  7.96
598.2  26174.55  2156.07  8.24
599.6  26202.06  2235.95  8.53
601.0  26298.70  2331.63  8.87
602.4  26372.18  2428.59  9.21
603.9  26501.77  2531.42  9.55
605.3  26625.41  2642.61  9.93
606.7  26749.80  2755.20  10.30
608.1  26941.18  2885.49  10.71
609.5  27151.69  3022.56  11.13
610.9  27387.74  3172.35  11.58
612.3  27589.20  3326.92  12.06
613.7  27871.80  3495.93  12.54
615.1  28061.64  3664.17  13.06
616.5  28235.16  3835.15  13.58
617.9  28534.12  4036.16  14.15
619.3  28808.15  4239.61  14.72
620.7  29149.14  4470.86  15.34
622.1  29527.66  4681.05  15.85
623.5  29951.83  4886.84  16.32
624.9  30436.35  5117.74  16.81
626.3  30757.12  5328.25  17.32
627.7  30461.43  5447.63  17.88
629.1  30188.34  5588.33  18.51
630.5  30083.03  5764.85  19.16
631.9  30076.12  5963.62  19.83
633.3  30078.24  6152.50  20.45
634.7  30183.54  6347.52  21.03
636.1  30268.81  6502.20  21.48
637.5  30374.19  6637.95  21.85
638.9  30520.15  6766.49  22.17
640.2  30643.60  6875.97  22.44
641.6  30733.56  6949.02  22.61
643.0  30777.50  6990.04  22.71
644.4  30869.16  7022.94  22.75
645.8  30855.38  7032.52  22.79
647.2  31023.20  7085.20  22.84
648.5  31185.15  7138.43  22.89
649.9  31117.13  7157.58  23.00
651.3  31099.80  7199.08  23.15
652.7  31059.00  7231.80  23.28
654.1  30961.56  7156.55  23.11
655.5  30829.51  7031.23  22.81
656.8  30685.81  6895.28  22.47
658.2  30861.69  6840.08  22.16
659.6  31181.89  6812.60  21.85
660.9  31452.29  6757.83  21.49
662.3  31767.46  6678.45  21.02
663.7  32102.70  6584.55  20.51
665.0  32334.98  6477.62  20.03
666.4  32575.38  6380.16  19.59
667.8  32873.84  6304.06  19.18
669.1  33084.01  6235.55  18.85
670.5  33327.47  6196.27  18.59
671.9  33513.12  6160.80  18.38
673.2  33742.50  6167.04  18.28
674.6  33950.66  6199.59  18.26
676.0  34219.05  6282.78  18.36
677.3  34494.18  6401.27  18.56
678.7  34767.13  6578.29  18.92
680.0  35103.31  6856.20  19.53
681.4  35420.13  7237.18  20.43
682.8  35763.00  7740.69  21.64
684.1  36073.44  8398.65  23.28
685.5  36318.59  9201.58  25.34
686.8  36607.26  10152.83  27.73
688.2  36844.31  11221.63  30.46
689.5  36898.97  12335.46  33.43
690.9  36950.15  13499.41  36.53
692.2  37008.15  14690.13  39.69
693.6  37024.93  15881.22  42.89
694.9  37005.38  17003.70  45.95
696.2  37027.13  18100.43  48.88
697.6  37047.86  19136.56  51.65
698.9  37049.76  20116.80  54.30
700.3  37075.62  21043.61  56.76
701.6  37124.24  21914.12  59.03
703.0  37178.40  22717.55  61.10
704.3  37172.20  23415.41  62.99
705.6  37157.22  24055.38  64.74
707.0  37168.46  24647.49  66.31
708.3  37076.04  25130.36  67.78
709.6  36967.81  25569.50  69.17
711.0  36867.73  25928.60  70.33
712.3  36770.31  26251.33  71.39
713.6  36755.88  26603.08  72.38
714.9  36684.64  26908.88  73.35
716.3  36701.44  27229.57  74.19
717.6  36734.04  27547.02  74.99
718.9  36680.73  27773.58  75.72
720.2  36496.25  27884.14  76.40
721.6  36394.28  28014.81  76.98
722.9  36240.12  28111.41  77.57
724.2  36067.30  28141.41  78.02
725.5  35963.70  28204.60  78.43
726.8  35833.96  28232.95  78.79
728.1  35810.80  28297.65  79.02
729.5  35779.10  28349.55  79.23
730.8  35779.13  28409.32  79.40
732.1  35704.25  28431.07  79.63
733.4  35690.92  28476.79  79.79
734.7  35685.89  28504.00  79.87
736.0  35729.66  28589.68  80.02
737.3  35717.44  28625.87  80.15
738.6  35830.21  28776.59  80.31
739.9  36014.88  29000.47  80.52
741.2  36161.58  29177.33  80.69
742.5  36363.94  29462.74  81.02
743.8  36737.66  29883.70  81.34
745.1  37309.08  30480.36  81.70
746.4  37926.98  31142.93  82.11
747.7  38536.99  31801.26  82.52
749.0  39118.92  32439.49  82.93
750.3  39493.02  32793.02  83.03
751.6  39440.80  32767.80  83.08
752.9  39084.79  32510.90  83.18
754.2  38731.25  32212.57  83.17
755.4  38386.91  31892.57  83.08
756.7  38244.09  31840.33  83.26
758.0  38261.36  31939.83  83.48
759.3  38489.95  32215.48  83.70
760.6  38786.44  32575.11  83.99
761.9  39062.28  32907.29  84.24
763.1  39197.21  33114.81  84.48
764.4  39371.54  33359.91  84.73
765.7  39490.75  33548.67  84.95
767.0  39577.16  33697.06  85.14
768.2  39644.64  33831.84  85.34
769.5  39697.68  33944.89  85.51
770.8  39836.32  34134.89  85.69
772.0  39856.44  34205.71  85.82
773.3  39898.95  34321.16  86.02
774.6  39978.84  34451.72  86.17
775.8  40054.79  34552.57  86.26
777.1  40085.96  34605.92  86.33
778.4  40059.57  34593.50  86.36
779.6  39999.54  34612.82  86.53
780.9  39948.00  34600.67  86.61
782.1  39837.20  34512.40  86.63
783.4  39802.88  34547.41  86.80
784.6  39851.08  34604.51  86.83
785.9  40095.40  34910.65  87.07
787.1  40531.58  35409.03  87.36
788.4  40834.19  35759.69  87.57
789.6  40796.10  35667.59  87.43
790.9  40479.11  35303.23  87.21
792.1  40128.24  34957.07  87.11
793.4  39739.41  34617.03  87.11
794.6  39507.48  34385.36  87.04
795.8  39314.07  34199.35  86.99
797.1  39097.95  34004.45  86.97
798.3  38940.83  33880.76  87.01
799.5  38821.14  33807.95  87.09
800.8  38733.05  33724.64  87.07
802.0  38591.76  33626.54  87.13
803.2  38469.72  33510.53  87.11
804.5  38377.94  33439.36  87.13
805.7  38264.87  33347.41  87.15
806.9  38181.95  33254.98  87.10
808.1  38074.65  33198.86  87.19
809.4  38033.33  33163.07  87.19
810.6  37951.55  33109.59  87.24
811.8  37942.61  33107.95  87.26
813.0  37965.80  33135.60  87.28
814.2  37975.49  33173.86  87.36
815.4  38039.93  33263.57  87.44
816.6  38032.65  33289.62  87.53
817.9  38050.16  33308.32  87.54
819.1  37997.24  33228.46  87.45
820.3  37865.18  33095.05  87.40
821.5  37787.61  32999.41  87.33
822.7  37714.41  32929.23  87.31
823.9  37704.87  32917.57  87.30
825.1  37688.07  32889.38  87.27
826.3  37716.38  32876.34  87.17
827.5  37726.06  32864.78  87.11
828.7  37779.60  32844.92  86.94
829.9  37796.29  32827.50  86.85
831.0  37849.02  32861.14  86.82
832.2  37913.75  32894.48  86.76
833.4  37950.44  32908.68  86.71
834.6  37978.13  32953.91  86.77
835.8  38031.53  32993.89  86.75
837.0  38073.26  33080.89  86.89
838.1  38178.69  33182.94  86.91
839.3  38239.24  33245.87  86.94
840.5  38296.24  33346.52  87.08
841.7  38381.58  33466.50  87.19
842.9  38485.06  33607.00  87.32
844.0  38543.94  33705.97  87.45
845.2  38626.85  33834.64  87.59
846.4  38724.98  33934.50  87.63
847.5  38888.12  34122.12  87.74
848.7  39002.30  34266.75  87.86
849.9  39141.74  34387.91  87.85
851.0  39173.78  34427.47  87.88
852.2  39245.07  34466.32  87.82
853.3  39202.67  34434.81  87.84
854.5  39188.19  34434.11  87.87
855.6  39170.88  34432.31  87.90
856.8  39193.80  34481.71  87.98
857.9  39192.81  34472.83  87.96
859.1  39326.60  34560.87  87.88
860.2  39300.24  34563.03  87.95
861.4  39344.78  34595.69  87.93
862.5  39384.29  34624.04  87.91
863.7  39467.66  34687.97  87.89
864.8  39454.45  34686.40  87.92
865.9  39398.65  34646.16  87.94
867.1  39448.45  34666.61  87.88
868.2  39441.53  34644.31  87.84
869.3  39465.67  34657.69  87.82
870.5  39438.89  34599.03  87.73
871.6  39473.54  34591.66  87.63
872.7  39541.37  34639.53  87.60
873.9  39548.50  34632.04  87.57
875.0  39546.05  34601.53  87.50
876.1  39583.15  34579.09  87.36
877.2  39616.79  34576.57  87.28
878.3  39601.98  34522.97  87.17
879.4  39662.11  34522.38  87.04
880.5  39702.60  34508.28  86.92
881.7  39698.10  34435.16  86.74
882.8  39775.46  34448.51  86.61
883.9  39785.32  34419.89  86.51
885.0  39766.55  34318.83  86.30
886.1  39735.85  34240.59  86.17
887.2  39664.66  34059.64  85.87
888.3  39567.00  33930.20  85.75
889.4  39535.02  33775.12  85.43
890.5  39459.91  33687.70  85.37
891.6  39428.33  33592.27  85.20
892.7  39429.01  33519.48  85.01
893.8  39492.50  33517.59  84.87
894.9  39505.51  33482.75  84.75
896.0  39527.49  33421.40  84.55
897.0  39487.40  33377.03  84.53
898.1  39490.45  33342.13  84.43
899.2  39536.22  33286.20  84.19
900.3  39503.73  33185.83  84.01
901.4  39454.09  33079.53  83.84
902.4  39461.49  33042.41  83.73
903.5  39418.10  32959.34  83.61
904.6  39431.18  32897.50  83.43
905.7  39454.64  32862.88  83.29
906.7  39397.52  32800.75  83.26
907.8  39514.80  32775.65  82.95
908.9  39443.33  32662.14  82.81
909.9  39411.21  32570.95  82.64
911.0  39357.50  32459.56  82.47
912.1  39280.99  32350.59  82.36
913.1  39233.48  32226.91  82.14
914.2  39173.92  32054.24  81.83
915.2  39170.79  32001.30  81.70
916.3  39094.50  31903.73  81.61
917.3  39076.47  31824.56  81.44
918.4  39031.30  31679.86  81.17
919.4  39022.48  31560.59  80.88
920.5  39026.74  31439.36  80.56
921.5  39018.63  31340.41  80.32
922.6  38959.72  31195.51  80.07
923.6  39026.05  31102.71  79.70
924.7  39022.50  31004.79  79.45
925.7  39030.84  30874.98  79.10
926.7  39009.32  30750.74  78.83
927.8  39032.57  30637.57  78.49
928.8  39142.62  30591.60  78.15
929.9  39330.10  30531.04  77.63
930.9  39447.46  30530.40  77.40
931.9  39602.61  30514.99  77.05
932.9  39864.58  30577.97  76.70
934.0  39909.81  30451.83  76.30
935.0  39942.68  30312.44  75.89
936.0  39929.50  30143.55  75.49
937.0  39883.94  29965.49  75.13
938.1  39848.52  29780.88  74.74
939.1  39753.89  29613.13  74.49
940.1  39867.76  29504.25  74.01
941.1  39995.43  29478.84  73.71
942.1  40229.45  29473.27  73.26
943.1  40393.76  29429.74  72.86
944.1  40552.56  29407.25  72.52
945.2  40570.32  29249.43  72.10
946.2  40685.67  29124.64  71.58
947.2  40740.25  28988.08  71.15
948.2  40874.09  28894.69  70.69
949.2  40954.06  28743.81  70.19
950.2  41026.00  28589.41  69.69
951.2  41012.16  28402.92  69.25
952.2  41170.94  28248.72  68.61
953.2  41257.13  28125.83  68.17
954.2  41395.95  28006.84  67.66
955.2  41401.94  27831.73  67.22
956.2  41391.82  27633.69  66.76
957.2  41524.97  27528.98  66.30
958.2  41486.28  27431.93  66.12
959.2  41625.00  27380.93  65.78
960.1  41647.94  27297.24  65.54
961.1  41725.78  27280.45  65.38
962.1  41752.50  27208.59  65.17
963.1  41720.60  27187.41  65.17
964.1  41837.60  27185.10  64.98
965.1  41932.95  27232.76  64.94
966.1  41961.44  27167.73  64.74
967.0  42058.17  27182.38  64.63
968.0  42094.69  27203.91  64.63
969.0  42115.20  27202.97  64.59
970.0  42092.26  27230.11  64.69
971.0  42266.18  27228.08  64.42
971.9  42275.33  27238.85  64.43
972.9  42388.85  27283.93  64.37
973.9  42492.13  27283.97  64.21
974.9  42580.28  27269.16  64.04
975.8  42630.52  27266.12  63.96
976.8  42806.43  27337.72  63.86
977.8  42848.34  27354.98  63.84
978.8  42868.95  27438.63  64.01
979.7  43050.58  27484.17  63.84
980.7  43264.32  27610.16  63.82
981.7  43347.07  27724.15  63.96
982.6  43545.07  27957.83  64.20
983.6  44003.55  28290.55  64.29
984.6  44377.46  28518.31  64.26
985.5  44900.28  29028.18  64.65
986.5  45688.01  29510.13  64.59
987.5  46285.78  30032.29  64.88
988.4  47161.40  30587.33  64.86
989.4  47812.76  31583.89  66.06
990.4  48753.98  32259.37  66.17
991.3  50274.64  33346.00  66.33
992.3  50864.45  33942.24  66.73
993.2  51610.85  34706.43  67.25
994.2  53891.66  35463.92  65.81
995.2  55394.96  36323.80  65.57
996.1  55625.12  36828.71  66.21
997.1  56348.70  36805.80  65.32
998.0  54473.40  36087.20  66.25
999.0  55283.87  37397.91  67.65
1000.0  55127.21  36376.45  65.99
1000.9  55875.58  37119.22  66.43
1001.9  56355.47  36556.72  64.87
1002.8  54776.67  36239.02  66.16
1003.8  57170.04  36367.71  63.61
1004.8  54763.20  37041.22  67.64
961.5  49984.08  29455.48  58.93
965.5  48959.90  29256.53  59.76
969.5  47367.08  28678.03  60.54
973.4  45664.01  27873.23  61.04
977.4  44063.24  27140.83  61.60
981.4  43484.76  26930.07  61.93
985.3  43466.28  27032.57  62.19
989.3  43739.41  27321.13  62.46
993.3  44088.36  27683.45  62.79
997.2  44246.85  27945.63  63.16
1001.2  44240.69  28200.77  63.74
1005.2  44147.66  28489.74  64.53
1009.1  44170.72  28875.76  65.37
1013.1  44298.35  29339.95  66.23
1017.1  44409.64  29808.77  67.12
1021.0  44418.65  30206.78  68.00
1025.0  44431.92  30572.61  68.81
1029.0  44310.95  30833.01  69.58
1032.9  44196.36  31111.21  70.39
1036.9  44214.81  31472.82  71.18
1040.9  44317.48  31906.27  71.99
1044.8  44471.57  32381.09  72.81
1048.8  44586.22  32812.16  73.59
1052.7  44660.98  33172.59  74.28
1056.7  44664.90  33424.78  74.83
1060.7  44652.74  33621.12  75.29
1064.6  44643.90  33777.57  75.66
1068.6  44545.19  33794.21  75.87
1072.5  44448.63  33770.09  75.98
1076.5  44390.31  33731.53  75.99
1080.4  44363.13  33660.61  75.88
1084.4  44428.99  33620.86  75.67
1088.3  44526.89  33539.61  75.32
1092.3  44515.11  33326.75  74.87
1096.2  44485.25  33095.21  74.40
1100.2  44489.30  32887.77  73.92
1104.1  44387.15  32562.31  73.36
1108.1  44344.78  32272.68  72.78
1112.0  44255.25  31921.19  72.13
1116.0  44078.91  31462.28  71.38
1119.9  43920.46  30954.69  70.48
1123.9  43980.05  30479.23  69.30
1127.8  43933.44  29752.32  67.72
1131.8  43891.20  28798.52  65.61
1135.7  43904.71  27681.40  63.05
1139.6  43873.24  26447.28  60.28
1143.6  43814.30  25243.09  57.61
1147.5  43764.96  24200.63  55.30
1151.4  43600.54  23317.45  53.48
1155.4  43567.43  22749.19  52.22
1159.3  43548.37  22379.58  51.39
1163.2  43379.84  22046.73  50.82
1167.2  43333.14  21863.04  50.45
1171.1  43320.14  21741.88  50.19
1175.0  43247.45  21606.91  49.96
1179.0  43203.54  21483.18  49.73
1182.9  43281.26  21418.94  49.49
1186.8  43262.79  21331.69  49.31
1190.7  43059.97  21152.88  49.12
1194.7  42822.73  20973.27  48.98
1198.6  42602.18  20847.75  48.94
1202.5  42456.57  20785.02  48.96
1206.4  42335.53  20771.25  49.06
1210.3  42230.32  20793.86  49.24
1214.2  42126.94  20841.18  49.47
1218.2  41984.08  20893.52  49.77
1222.1  41854.50  20972.01  50.11
1226.0  41760.57  21071.16  50.46
1229.9  41673.90  21157.60  50.77
1233.8  41576.55  21236.53  51.08
1237.7  41528.30  21320.15  51.34
1241.6  41457.25  21386.70  51.59
1245.5  41309.15  21407.81  51.82
1249.4  41175.26  21417.25  52.01
1253.3  41058.30  21433.21  52.20
1257.2  40978.33  21458.39  52.37
1261.1  40873.57  21447.18  52.47
1265.0  40757.89  21407.87  52.52
1268.9  40587.74  21312.84  52.51
1272.8  40626.75  21303.75  52.44
1276.7  40780.33  21338.36  52.33
1280.6  40842.56  21295.75  52.14
1284.5  40748.73  21137.60  51.87
1288.4  40697.88  20974.42  51.54
1292.3  40562.50  20737.75  51.13
1296.2  40411.46  20447.28  50.60
1300.1  40239.63  20110.00  49.98
1303.9  40009.73  19704.45  49.25
1307.8  39785.54  19260.42  48.41
1311.7  39554.21  18781.30  47.48
1315.6  39326.35  18279.88  46.48
1319.5  39086.11  17743.74  45.40
1323.3  38870.69  17192.18  44.23
1327.2  38681.53  16635.85  43.01
1331.1  38474.56  16071.72  41.77
1335.0  38203.08  15494.90  40.56
1338.8  38009.09  14977.65  39.41
1342.7  37876.27  14517.12  38.33
1346.5  37598.34  14015.64  37.28
1350.4  37400.07  13564.13  36.27
1354.3  37094.65  13097.14  35.31
1358.1  36731.71  12628.98  34.38
1362.0  36487.36  12221.91  33.50
1365.8  36370.47  11841.71  32.56
1369.7  36432.94  11472.85  31.49
1373.5  36366.82  10966.21  30.15
1377.4  36166.21  10289.37  28.45
1381.2  35990.96  9508.49  26.42
1385.1  35936.27  8717.13  24.26
1389.0  35813.45  7916.34  22.10
1392.8  35598.92  7120.79  20.00
1396.6  35460.61  6417.14  18.10
1400.5  35253.63  5805.25  16.47
1404.3  35072.57  5308.00  15.13
1408.2  35016.72  4934.91  14.09
1412.0  34945.02  4649.19  13.30
1415.8  34962.39  4437.43  12.69
1419.6  34891.95  4265.34  12.22
1423.5  34842.23  4143.23  11.89
1427.3  34796.45  4050.97  11.64
1431.1  34758.75  3980.40  11.45
1434.9  34669.05  3922.97  11.32
1438.8  34606.94  3889.20  11.24
1442.6  34573.84  3871.29  11.20
1446.4  34441.31  3843.21  11.16
1450.2  34332.12  3824.64  11.14
1454.0  34220.52  3810.64  11.14
1457.8  34188.19  3820.16  11.17
1461.6  34155.00  3836.75  11.23
1465.4  34045.70  3858.00  11.33
1469.2  33870.20  3894.04  11.50
1473.0  33726.92  3941.49  11.69
1476.8  33664.28  4016.12  11.93
1480.7  33601.58  4109.04  12.23
1484.4  33488.64  4206.60  12.56
1488.2  33386.04  4324.40  12.95
1492.0  33257.25  4447.19  13.37
1495.8  33142.20  4565.93  13.78
1499.6  33034.11  4665.87  14.12
1503.4  32933.47  4725.48  14.35
1507.2  32852.74  4764.53  14.50
1510.9  32722.34  4812.52  14.71
1514.7  32573.11  4884.59  15.00
1518.5  32453.90  4986.86  15.37
1522.3  32317.90  5080.72  15.72
1526.0  32200.64  5171.53  16.06
1529.8  32127.61  5281.52  16.44
1533.6  32011.66  5379.09  16.80
1537.3  31894.88  5476.68  17.17
1541.1  31782.08  5573.36  17.54
1544.8  31651.20  5667.20  17.91
1548.6  31528.46  5757.58  18.26
1552.4  31450.00  5845.92  18.59
1556.1  31366.15  5928.60  18.90
1559.9  31270.43  5996.97  19.18
1563.6  31150.17  6072.04  19.49
1567.3  31046.10  6163.01  19.85
1571.1  30855.35  6239.84  20.22
1574.8  30723.08  6328.73  20.60
1578.6  30633.26  6418.94  20.95
1582.3  30519.48  6479.76  21.23
1586.0  30400.45  6522.71  21.46
1589.8  30269.89  6565.98  21.69
1593.5  30123.48  6608.70  21.94
1597.2  29998.09  6653.97  22.18
1600.9  29883.71  6697.16  22.41
1604.7  29753.95  6743.62  22.66
1608.4  29639.51  6794.54  22.92
1612.1  29489.62  6831.73  23.17
1615.8  29365.23  6867.53  23.39
1619.5  29298.37  6921.52  23.62
1623.2  29161.12  6954.73  23.85
1626.9  29003.45  6973.75  24.04
1630.6  28846.40  6997.83  24.26
1634.3  28721.00  7023.48  24.45
1638.0  28599.28  7032.89  24.59
1641.7  28456.49  7030.65  24.71
1645.4  28299.47  7015.22  24.79
1649.1  28138.66  6992.20  24.85
1652.8  28008.70  6978.49  24.92
1656.4  27859.80  6950.78  24.95
1660.1  27720.43  6920.66  24.97
1663.8  27551.22  6887.80  25.00
1667.5  27406.07  6861.87  25.04
1671.1  27282.14  6833.58  25.05
1674.8  27100.13  6782.81  25.03
1678.5  27060.12  6752.38  24.95
1682.1  27085.37  6723.35  24.82
1685.8  27087.74  6691.93  24.70
1689.5  26985.46  6635.31  24.59
1693.1  26859.21  6563.32  24.44
1696.8  26718.75  6492.46  24.30
1700.4  26575.97  6409.17  24.12
1704.0  26457.91  6326.04  23.91
1707.7  26210.69  6204.82  23.67
1711.3  25940.59  6073.17  23.41
1715.0  25755.85  5965.55  23.16
1718.6  25603.66  5860.62  22.89
1722.2  25471.82  5763.15  22.63
1725.9  25346.15  5671.35  22.38
1729.5  25225.17  5594.11  22.18
1733.1  25122.33  5539.29  22.05
1736.7  25028.77  5496.91  21.96
1740.3  24869.68  5436.65  21.86
1744.0  24796.20  5372.63  21.67
1747.5  24670.34  5291.28  21.45
1751.2  24460.97  5187.32  21.21
1754.8  24300.77  5087.21  20.93
1758.4  24168.99  5007.99  20.72
1762.0  24004.67  4932.49  20.55
1765.5  23878.06  4873.56  20.41
1769.1  23824.80  4839.20  20.31
1772.7  23745.17  4798.42  20.21
1776.3  23631.64  4752.63  20.11
1779.9  23517.13  4706.21  20.01
1783.5  23453.36  4677.28  19.94
1787.0  23338.16  4638.15  19.87
1790.6  23194.11  4601.83  19.84
1794.2  23099.94  4578.10  19.82
1797.8  23019.59  4559.78  19.81
1801.3  22943.45  4555.11  19.85
1804.9  22821.75  4529.88  19.85
1808.4  22758.56  4523.06  19.87
1812.0  22651.25  4511.43  19.92
1815.5  22537.46  4491.55  19.93
1819.1  22377.91  4458.15  19.92
1822.6  22230.86  4429.05  19.92
1826.2  22108.08  4402.04  19.91
1829.7  21962.63  4361.90  19.86
1833.2  21769.52  4308.42  19.79
1836.8  21568.82  4258.35  19.74
1840.3  21408.35  4215.75  19.69
1843.8  21283.15  4175.45  19.62
1847.3  21175.36  4143.62  19.57
1850.8  21026.88  4099.20  19.50
1854.3  20829.70  4022.95  19.31
1857.8  20716.80  3903.47  18.84
1861.3  20743.52  3757.33  18.11
1864.8  20771.48  3552.28  17.10
1868.3  20668.83  3280.77  15.87
1871.8  20505.60  3000.32  14.63
1875.3  20412.67  2743.35  13.44
1878.8  20386.82  2526.44  12.39
1882.3  20318.80  2321.18  11.42
1885.8  20165.84  2130.90  10.57
1889.3  19976.70  1990.72  9.97
1892.7  19815.25  1894.75  9.56
1896.2  19650.94  1832.93  9.33
1899.7  19441.16  1816.69  9.34
1903.1  19313.45  1862.78  9.65
1906.6  19304.54  1984.48  10.28
1910.0  19451.18  2195.99  11.29
1913.5  19794.95  2468.57  12.47
1917.0  20308.75  2904.77  14.30
1920.4  20662.58  3405.25  16.48
1923.8  20806.27  3576.08  17.19
1871.2  18887.00  2140.53  11.33
1873.9  18953.16  2061.76  10.88
1876.7  18991.47  1947.08  10.25
1879.5  19143.67  1762.40  9.21
1882.3  18900.39  1644.95  8.70
1885.1  18757.12  1540.11  8.21
1887.8  18909.61  1426.67  7.54
1890.6  18719.80  1338.43  7.15
1893.4  18700.00  1278.44  6.84
1896.2  18690.78  1214.88  6.50
1898.9  18634.09  1166.91  6.26
1901.7  18493.24  1140.40  6.17
1904.5  18663.12  1125.01  6.03
1907.2  18605.75  1117.83  6.01
1910.0  18464.96  1080.83  5.85
1912.7  18451.36  1035.53  5.61
1915.5  18338.72  1039.93  5.67
1918.2  18231.61  1038.91  5.70
1921.0  18078.76  1005.14  5.56
1923.7  18082.37  1006.06  5.56
1926.5  18028.91  1008.48  5.59
1929.2  17989.40  986.58  5.48
1932.0  17961.44  984.87  5.48
1934.7  17922.05  990.11  5.52
1937.4  17800.47  984.26  5.53
1940.2  17730.06  986.54  5.56
1942.9  17801.07  999.78  5.62
1945.6  17808.94  1008.68  5.66
1948.3  17731.12  1013.81  5.72
1951.1  17698.80  1008.35  5.70
1953.8  17700.00  1001.00  5.66
1956.5  17568.67  1023.29  5.82
1959.2  17632.03  1045.50  5.93
1961.9  17647.56  1046.97  5.93
1964.6  17543.58  1046.21  5.96
1967.3  17598.27  1061.08  6.03
1970.0  17419.60  1063.63  6.11
1972.8  17335.24  1092.34  6.30
1975.5  17419.52  1102.38  6.33
1978.2  17336.04  1091.11  6.29
1980.9  17221.82  1117.42  6.49
1983.5  17185.34  1117.77  6.50
1986.2  17183.55  1108.71  6.45
1988.9  17157.36  1128.11  6.58
1991.6  17017.92  1141.29  6.71
1994.3  16893.86  1146.67  6.79
1997.0  16913.63  1162.94  6.88
1999.7  16876.79  1179.30  6.99
2002.3  16857.27  1177.51  6.99
2005.0  16785.35  1190.94  7.10
2007.7  16706.93  1198.27  7.17
2010.4  16656.07  1184.83  7.11
2013.0  16600.58  1222.41  7.36
2015.7  16495.88  1222.87  7.41
2018.4  16401.61  1219.77  7.44
2021.0  16371.00  1255.17  7.67
2023.7  16264.64  1245.62  7.66
2026.4  16195.83  1240.27  7.66
2029.0  16138.97  1249.32  7.74
2031.7  16029.65  1258.11  7.85
2034.3  16012.75  1268.44  7.92
2037.0  15932.90  1279.89  8.03
2039.6  15864.39  1292.26  8.15
2042.3  15822.15  1284.35  8.12
2044.9  15747.27  1293.11  8.21
2047.5  15719.22  1300.59  8.27
2050.2  15638.00  1293.60  8.27
2052.8  15596.00  1307.60  8.38
2055.4  15487.61  1302.78  8.41
2058.1  15363.60  1301.07  8.47
2060.7  15311.01  1311.79  8.57
2063.3  15243.07  1314.38  8.62
2065.9  15200.63  1321.39  8.69
2068.6  15142.00  1322.32  8.73
2071.2  15102.27  1331.76  8.82
2073.8  15013.06  1332.01  8.87
2076.4  14939.89  1346.26  9.01
2079.0  14937.96  1358.17  9.09
2081.6  14955.68  1356.03  9.07
2084.2  14929.44  1371.33  9.19
2086.8  14795.01  1369.86  9.26
2089.4  14708.12  1362.55  9.26
2092.1  14645.50  1375.11  9.39
2094.7  14574.18  1387.08  9.52
2097.2  14543.50  1384.56  9.52
2099.8  14569.24  1392.97  9.56
2102.4  14455.51  1394.18  9.64
2105.0  14315.55  1389.85  9.71
2107.6  14281.54  1400.43  9.81
2110.2  14245.28  1405.68  9.87
2112.8  14225.04  1407.81  9.90
2115.3  14222.61  1434.67  10.09
2117.9  14223.97  1450.83  10.20
2120.5  14225.20  1440.98  10.13
2123.1  14136.53  1452.75  10.28
2125.6  14079.43  1453.43  10.32
2128.2  14012.88  1444.80  10.31
2130.8  13940.55  1454.70  10.44
2133.3  13889.33  1454.93  10.48
2135.9  13802.30  1462.99  10.60
2138.4  13704.95  1466.46  10.70
2141.0  13601.55  1459.37  10.73
2143.6  13585.34  1455.09  10.71
2146.1  13439.94  1453.50  10.81
2148.7  13282.54  1451.69  10.93
2151.2  13302.67  1453.96  10.93
2153.8  13324.47  1474.61  11.07
2156.3  13227.98  1461.90  11.05
2158.8  13160.05  1450.09  11.02
2161.4  13128.93  1469.25  11.19
2163.9  13034.58  1461.39  11.21
2166.4  12973.85  1458.62  11.24
2169.0  12959.07  1463.55  11.29
2171.5  12876.28  1456.65  11.31
2174.0  12786.55  1452.79  11.36
2176.5  12767.30  1472.08  11.53
2179.1  12718.27  1470.70  11.56
2181.6  12644.21  1448.85  11.46
2184.1  12612.60  1447.60  11.48
2186.6  12631.79  1458.28  11.54
2189.1  12551.10  1451.99  11.57
2191.6  12501.53  1450.40  11.60
2194.1  12512.72  1468.18  11.73
2196.6  12513.32  1467.36  11.73
2199.2  12564.98  1473.24  11.72
2201.7  12503.60  1486.39  11.89
2204.1  12450.01  1483.11  11.91
2206.6  12458.20  1483.30  11.91
2209.1  12429.94  1486.25  11.96
2211.6  12413.54  1483.33  11.95
2214.1  12385.83  1476.32  11.92
2216.6  12340.79  1469.96  11.91
2219.1  12355.98  1450.96  11.74
2221.6  12303.15  1446.53  11.76
2224.0  12230.10  1460.50  11.94
2226.5  12198.83  1431.95  11.74
2229.0  12234.63  1437.65  11.75
2231.5  12152.59  1404.33  11.56
2233.9  12137.64  1378.99  11.36
2236.4  12131.98  1407.61  11.60
2238.9  12024.13  1376.92  11.45
2241.3  12068.10  1368.11  11.34
2243.8  12017.57  1359.04  11.31
2246.2  11870.35  1324.53  11.16
2248.7  11882.39  1313.84  11.06
2251.2  11860.53  1305.45  11.01
2253.6  11784.96  1283.84  10.89
2256.1  11773.44  1262.08  10.72
2258.5  11793.92  1243.42  10.54
2260.9  11696.75  1229.76  10.51
2263.4  11668.53  1205.24  10.33
2265.8  11678.48  1195.03  10.23
2268.3  11583.48  1185.29  10.23
2270.7  11653.18  1177.09  10.10
2273.1  11608.55  1163.28  10.02
2275.6  11523.84  1131.52  9.82
2278.0  11553.06  1137.63  9.85
2280.4  11529.61  1157.06  10.04
2282.8  11402.06  1118.91  9.81
2285.3  11435.59  1083.55  9.48
2287.7  11531.47  1103.82  9.57
2290.1  11440.95  1089.80  9.53
2292.5  11408.96  1054.25  9.24
2294.9  11404.51  1064.32  9.33
2297.3  11303.39  1055.99  9.34
2299.7  11233.01  1009.46  8.99
2302.1  11231.11  989.94  8.81
2304.5  11113.20  968.24  8.71
2306.9  10995.60  943.41  8.58
2309.3  10932.15  949.54  8.69
2311.7  10856.55  947.24  8.73
2314.1  10708.33  929.45  8.68
2316.5  10641.94  946.91  8.90
2318.9  10674.03  947.32  8.87
2321.3  10672.73  928.35  8.70
2323.7  10642.23  954.41  8.97
2326.1  10606.96  947.05  8.93
2328.4  10691.58  920.80  8.61
2330.8  10736.25  943.43  8.79
2333.2  10617.06  921.13  8.68
2335.6  10582.60  899.53  8.50
2337.9  10642.00  897.27  8.43
2340.3  10592.40  897.05  8.47
2342.7  10507.23  884.42  8.42
2345.0  10502.01  853.58  8.13
2347.4  10493.25  874.08  8.33
2349.7  10277.63  828.70  8.06
2352.1  10236.25  817.64  7.99
2354.4  10290.21  836.74  8.13
2356.8  10243.45  821.61  8.02
2359.2  10187.67  830.56  8.15
2361.5  10122.93  814.49  8.05
2363.8  10144.75  803.68  7.92
2366.2  10159.49  828.24  8.15
2368.5  10097.05  809.90  8.02
2370.9  10118.68  773.89  7.65
2373.2  10072.53  785.42  7.80
2375.5  9932.38  782.83  7.88
2377.9  9918.93  756.68  7.63
2380.2  9923.89  754.45  7.60
2382.5  9856.28  750.52  7.61
2384.8  9822.88  748.59  7.62
2387.2  9807.99  759.51  7.74
2389.5  9759.69  744.45  7.63
2391.8  9772.85  716.17  7.33
2394.1  9716.63  726.15  7.47
2396.4  9652.48  722.53  7.49
2398.7  9714.10  714.51  7.36
2401.0  9598.25  702.19  7.32
2403.3  9511.80  683.92  7.19
2405.6  9521.83  686.44  7.21
2407.9  9458.88  709.75  7.50
2410.2  9400.00  678.47  7.22
2412.5  9350.27  655.53  7.01
2414.8  9330.30  682.96  7.32
2417.1  9280.68  664.14  7.16
2419.4  9294.64  651.25  7.01
2421.7  9214.94  639.56  6.94
2424.0  9156.02  646.33  7.06
2426.2  9223.40  650.92  7.06
2428.5  9129.27  643.59  7.05
2430.8  9112.40  630.38  6.92
2433.1  9071.93  602.95  6.65
2435.4  8991.17  632.24  7.03
2437.6  8963.19  626.64  6.99
2439.9  8866.09  576.48  6.50
2442.2  8873.80  582.11  6.56
2444.4  8827.50  603.05  6.83
2446.7  8812.56  564.53  6.41
2448.9  8870.66  578.35  6.52
2451.2  8802.92  596.00  6.77
2453.4  8732.64  580.57  6.65
2455.7  8702.87  589.92  6.78
2457.9  8608.05  551.49  6.41
2460.2  8594.01  544.58  6.34
2462.4  8611.20  582.40  6.76
2464.7  8503.63  540.41  6.36
2466.9  8416.62  502.90  5.98
2469.2  8471.54  518.53  6.12
2471.4  8370.38  512.07  6.12
2473.6  8261.63  499.89  6.05
2475.9  8256.69  510.26  6.18
2478.1  8211.66  530.59  6.46
2480.3  8173.00  501.24  6.13
2482.5  8177.69  483.70  5.91
2484.8  8119.06  487.87  6.01
2487.0  8110.30  476.49  5.88
2489.2  8058.48  497.53  6.17
2491.4  7946.29  489.28  6.16
2493.6  7987.26  470.30  5.89
2495.8  7981.68  493.58  6.18
2498.0  7985.07  513.42  6.43
2500.2  7961.63  449.34  5.64
2502.4  8125.20  476.56  5.87
2504.6  8272.59  510.19  6.17
2506.8  8348.61  448.12  5.37
