/*** Spectra Vista SIG Data ***/
name= GS.sig
comm= Averaged Ref/Tar of files: GS1,GS2,GS3
data=
346.4  468.20  155.64  33.24
347.9  473.76  158.34  33.42
349.5  521.04  157.25  30.18
351.1  558.48  159.74  28.60
352.6  585.06  168.67  28.83
354.2  625.05  167.77  26.84
355.7  673.50  186.11  27.63
357.3  724.71  183.55  25.33
358.8  751.43  185.24  24.65
360.4  798.47  195.81  24.52
361.9  821.87  194.09  23.62
363.5  851.78  195.06  22.90
365.1  887.68  188.17  21.20
366.6  918.37  200.25  21.80
368.2  973.68  194.29  19.95
369.7  1008.89  189.37  18.77
371.3  1073.36  205.23  19.12
372.8  1148.72  210.93  18.36
374.4  1191.49  209.60  17.59
375.9  1247.87  215.37  17.26
377.4  1278.23  219.44  17.17
379.0  1330.29  212.80  16.00
380.5  1360.26  209.89  15.43
382.1  1412.49  211.18  14.95
383.6  1460.03  208.85  14.30
385.2  1529.00  209.73  13.72
386.7  1608.26  214.07  13.31
388.3  1679.42  227.00  13.52
389.8  1759.55  231.13  13.14
391.3  1843.67  240.81  13.06
392.9  1897.62  250.36  13.19
394.4  1955.58  260.35  13.31
395.9  2019.02  286.79  14.20
397.5  2131.80  293.50  13.77
399.0  2240.25  300.55  13.42
400.6  2303.62  292.81  12.71
402.1  2342.64  295.32  12.61
403.6  2375.92  295.06  12.42
405.1  2451.81  293.70  11.98
406.7  2542.40  306.58  12.06
408.2  2650.73  316.60  11.94
409.7  2746.24  328.09  11.95
411.3  2843.51  339.36  11.93
412.8  2936.43  358.50  12.21
414.3  3034.90  368.10  12.13
415.8  3152.50  382.33  12.13
417.4  3253.58  399.91  12.29
418.9  3339.60  407.50  12.20
420.4  3424.70  416.58  12.16
421.9  3487.22  421.40  12.08
423.5  3546.87  424.82  11.98
425.0  3613.98  425.68  11.78
426.5  3695.85  433.30  11.72
428.0  3801.23  439.78  11.57
429.5  3926.30  445.03  11.33
431.1  4071.24  457.43  11.24
432.6  4225.66  468.07  11.08
434.1  4373.60  487.54  11.15
435.6  4514.36  497.68  11.02
437.1  4642.95  519.09  11.18
438.6  4769.06  530.95  11.13
440.1  4906.69  550.47  11.22
441.6  5042.30  563.91  11.18
443.1  5179.95  591.57  11.42
444.7  5318.34  612.39  11.51
446.2  5433.01  636.97  11.72
447.7  5551.25  660.34  11.90
449.2  5676.48  691.49  12.18
450.7  5788.64  706.37  12.20
452.2  5916.62  727.44  12.29
453.7  6028.91  749.84  12.44
455.2  6201.73  769.70  12.41
456.7  6390.56  803.03  12.57
458.2  6607.30  834.02  12.62
459.7  6823.25  860.18  12.61
461.2  7031.76  889.68  12.65
462.7  7219.07  910.51  12.61
464.2  7396.86  940.99  12.72
465.7  7583.22  964.66  12.72
467.2  7742.35  985.60  12.73
468.7  7912.00  1011.47  12.78
470.2  8015.91  1040.23  12.98
471.7  8177.13  1067.80  13.06
473.2  8446.52  1095.56  12.97
474.6  8688.33  1116.28  12.85
476.1  8747.12  1128.55  12.90
477.6  8779.39  1142.79  13.02
479.1  8829.54  1154.86  13.08
480.6  8916.06  1167.57  13.10
482.1  9046.91  1186.16  13.11
483.6  9204.08  1215.42  13.21
485.1  9394.00  1245.49  13.26
486.6  9626.34  1287.80  13.38
488.0  9867.00  1331.42  13.49
489.5  10130.90  1383.63  13.66
491.0  10387.73  1442.54  13.89
492.5  10649.88  1511.46  14.19
494.0  10928.34  1585.41  14.51
495.4  11158.95  1661.99  14.89
496.9  11406.10  1751.27  15.35
498.4  11649.48  1844.71  15.84
499.9  11878.23  1947.65  16.40
501.4  12101.58  2058.87  17.01
502.8  12308.24  2177.69  17.69
504.3  12497.40  2304.00  18.44
505.8  12681.02  2441.90  19.26
507.2  12808.72  2575.54  20.11
508.7  12896.48  2715.44  21.06
510.2  12964.78  2859.27  22.05
511.6  13008.39  2997.78  23.04
513.1  13093.74  3159.68  24.13
514.6  13195.49  3324.65  25.20
516.0  13281.41  3493.82  26.31
517.5  13429.99  3678.79  27.39
519.0  13603.01  3882.54  28.54
520.5  13772.72  4087.32  29.68
521.9  13993.28  4302.90  30.75
523.4  14243.35  4525.12  31.77
524.8  14493.24  4748.13  32.76
526.3  14778.04  4977.13  33.68
527.8  15074.01  5196.99  34.48
529.2  15339.71  5406.50  35.25
530.7  15629.94  5611.39  35.90
532.1  15903.48  5802.13  36.48
533.6  16214.37  6000.19  37.01
535.0  16534.98  6194.50  37.46
536.5  16856.03  6374.35  37.82
538.0  17178.24  6563.77  38.21
539.4  17501.02  6736.95  38.49
540.9  17879.62  6924.67  38.73
542.3  18237.67  7094.55  38.90
543.8  18504.51  7242.69  39.14
545.2  18600.74  7320.78  39.36
546.6  18637.00  7376.29  39.58
548.1  18690.38  7429.85  39.75
549.5  18745.60  7473.40  39.87
551.0  18790.92  7514.65  39.99
552.4  18868.34  7556.94  40.05
553.9  18922.09  7587.69  40.10
555.3  18999.63  7617.52  40.09
556.8  19143.87  7658.24  40.00
558.2  19276.31  7688.37  39.89
559.6  19441.66  7725.33  39.74
561.1  19660.88  7778.01  39.56
562.5  19883.82  7827.14  39.36
564.0  20177.05  7893.09  39.12
565.4  20444.07  7939.97  38.84
566.8  20774.24  7999.26  38.51
568.3  21077.79  8036.52  38.13
569.7  21403.31  8074.13  37.72
571.1  21706.83  8092.09  37.28
572.6  22010.94  8110.26  36.85
574.0  22299.75  8120.42  36.41
575.4  22570.31  8129.36  36.02
576.9  22820.49  8131.08  35.63
578.3  23040.88  8125.02  35.26
579.7  23243.15  8123.41  34.95
581.1  23410.31  8106.06  34.63
582.6  23592.46  8095.67  34.31
584.0  23735.52  8079.89  34.04
585.4  23971.18  8090.77  33.75
586.8  24286.87  8129.32  33.47
588.3  24642.54  8187.50  33.23
589.7  24935.04  8229.78  33.00
591.1  25126.37  8246.70  32.82
592.5  25213.30  8234.90  32.66
594.0  25248.06  8204.97  32.50
595.4  25246.58  8169.04  32.36
596.8  25248.80  8135.42  32.22
598.2  25256.70  8107.46  32.10
599.6  25254.00  8074.52  31.97
601.0  25321.45  8057.29  31.82
602.4  25392.58  8035.75  31.65
603.9  25508.50  8029.08  31.48
605.3  25652.08  8014.62  31.24
606.7  25770.60  7988.16  31.00
608.1  26003.60  7980.77  30.69
609.5  26249.20  7976.94  30.39
610.9  26543.12  7977.97  30.06
612.3  26820.62  7972.65  29.73
613.7  27191.20  7984.61  29.36
615.1  27470.34  7953.55  28.95
616.5  27748.85  7936.51  28.60
617.9  28163.94  7960.26  28.26
619.3  28559.37  7999.86  28.01
620.7  29021.55  8069.51  27.81
622.1  29524.34  8105.13  27.45
623.5  30070.32  8137.59  27.06
624.9  30686.25  8189.74  26.69
626.3  31117.56  8195.99  26.34
627.7  30854.43  8046.02  26.08
629.1  30617.27  7914.30  25.85
630.5  30534.25  7845.72  25.69
631.9  30583.88  7836.40  25.62
633.3  30636.73  7836.81  25.58
634.7  30802.72  7867.69  25.54
636.1  30887.16  7841.09  25.39
637.5  30991.21  7794.03  25.15
638.9  31137.59  7737.22  24.85
640.2  31275.86  7659.06  24.49
641.6  31334.94  7554.61  24.11
643.0  31307.82  7413.75  23.68
644.4  31297.86  7276.33  23.25
645.8  31223.60  7121.51  22.81
647.2  31327.01  7024.35  22.42
648.5  31378.61  6927.63  22.08
649.9  31215.99  6820.16  21.85
651.3  31061.55  6735.06  21.68
652.7  30880.50  6645.81  21.52
654.1  30705.72  6426.01  20.93
655.5  30448.41  6175.94  20.28
656.8  30219.54  5933.54  19.63
658.2  30347.48  5775.47  19.03
659.6  30667.01  5649.08  18.42
660.9  30915.41  5515.78  17.84
662.3  31175.28  5372.47  17.23
663.7  31418.10  5229.00  16.64
665.0  31622.76  5096.57  16.12
666.4  31821.65  4974.31  15.63
667.8  32088.83  4886.11  15.23
669.1  32304.87  4804.53  14.87
670.5  32567.66  4755.89  14.60
671.9  32723.64  4716.34  14.41
673.2  32957.22  4717.27  14.31
674.6  33165.65  4739.93  14.29
676.0  33416.99  4797.01  14.35
677.3  33670.84  4885.54  14.51
678.7  33959.63  5013.02  14.76
680.0  34360.72  5208.12  15.16
681.4  34770.40  5474.86  15.75
682.8  35166.95  5813.84  16.53
684.1  35575.02  6255.60  17.58
685.5  35948.61  6798.59  18.91
686.8  36307.14  7448.22  20.51
688.2  36654.12  8205.87  22.39
689.5  36792.82  9025.70  24.53
690.9  36894.22  9946.60  26.96
692.2  37000.50  10927.77  29.53
693.6  37086.31  11972.85  32.28
694.9  37102.94  13019.96  35.09
696.2  37172.03  14094.29  37.92
697.6  37238.58  15156.85  40.70
698.9  37321.68  16214.70  43.45
700.3  37412.04  17243.21  46.09
701.6  37521.51  18237.91  48.61
703.0  37648.39  19186.70  50.96
704.3  37727.46  20038.25  53.11
705.6  37779.39  20849.11  55.19
707.0  37853.11  21623.38  57.12
708.3  37804.36  22276.54  58.93
709.6  37779.31  22893.93  60.60
711.0  37700.05  23431.74  62.15
712.3  37603.29  23936.68  63.66
713.6  37599.66  24450.22  65.03
714.9  37564.50  24909.10  66.31
716.3  37606.65  25396.54  67.53
717.6  37655.10  25869.14  68.70
718.9  37643.31  26247.82  69.73
720.2  37519.65  26498.84  70.63
721.6  37437.79  26763.69  71.49
722.9  37295.06  26985.85  72.36
724.2  37099.21  27144.87  73.17
725.5  36957.59  27329.16  73.95
726.8  36833.83  27458.63  74.55
728.1  36764.75  27623.82  75.14
729.5  36694.32  27779.77  75.71
730.8  36660.60  27924.69  76.17
732.1  36590.42  28039.47  76.63
733.4  36549.03  28162.15  77.05
734.7  36509.02  28251.71  77.38
736.0  36510.50  28394.87  77.77
737.3  36452.29  28496.38  78.17
738.6  36538.42  28687.33  78.51
739.9  36706.85  28956.04  78.88
741.2  36841.35  29154.76  79.14
742.5  37078.82  29459.01  79.45
743.8  37494.19  29913.73  79.78
745.1  38118.44  30522.54  80.07
746.4  38876.11  31210.67  80.28
747.7  39639.96  31876.02  80.41
749.0  40400.48  32520.51  80.50
750.3  40850.46  32862.54  80.45
751.6  40764.46  32837.19  80.55
752.9  40356.61  32576.18  80.72
754.2  39863.99  32282.22  80.98
755.4  39350.05  31968.32  81.24
756.7  39155.03  31925.37  81.54
758.0  39142.09  32014.80  81.79
759.3  39351.46  32295.01  82.07
760.6  39645.76  32659.91  82.38
761.9  39928.94  32990.63  82.62
763.1  40078.15  33185.96  82.80
764.4  40287.45  33430.26  82.98
765.7  40433.25  33614.97  83.14
767.0  40515.07  33758.60  83.32
768.2  40595.52  33895.01  83.49
769.5  40644.33  34008.00  83.67
770.8  40787.04  34191.88  83.83
772.0  40799.41  34260.06  83.97
773.3  40833.29  34376.11  84.19
774.6  40907.98  34504.61  84.35
775.8  40955.53  34594.05  84.47
777.1  40964.33  34643.56  84.57
778.4  40867.87  34622.89  84.72
779.6  40816.98  34652.38  84.90
780.9  40688.00  34649.87  85.16
782.1  40484.72  34566.84  85.38
783.4  40464.32  34584.30  85.47
784.6  40463.12  34654.02  85.64
785.9  40670.74  34966.10  85.97
787.1  41171.80  35477.29  86.17
788.4  41528.97  35818.66  86.25
789.6  41482.13  35706.48  86.08
790.9  41134.16  35321.42  85.87
792.1  40655.28  34976.59  86.03
793.4  40180.32  34653.61  86.25
794.6  39846.60  34402.15  86.34
795.8  39587.54  34220.21  86.44
797.1  39290.10  34033.73  86.62
798.3  39054.26  33911.77  86.83
799.5  38943.25  33853.02  86.93
800.8  38778.22  33792.71  87.14
802.0  38618.88  33689.67  87.24
803.2  38465.20  33589.03  87.32
804.5  38332.71  33509.91  87.42
805.7  38219.65  33431.23  87.47
806.9  38073.35  33344.42  87.58
808.1  37984.05  33303.05  87.68
809.4  37906.28  33287.10  87.81
810.6  37824.15  33259.59  87.93
811.8  37796.29  33284.45  88.06
813.0  37827.58  33343.86  88.15
814.2  37840.50  33422.59  88.32
815.4  37955.24  33511.52  88.29
816.6  38027.91  33570.24  88.28
817.9  38102.35  33606.94  88.20
819.1  38072.96  33558.16  88.14
820.3  37949.69  33465.33  88.18
821.5  37894.61  33396.57  88.13
822.7  37866.54  33351.51  88.08
823.9  37906.28  33373.03  88.04
825.1  37943.15  33378.43  87.97
826.3  38020.73  33387.07  87.81
827.5  38108.05  33432.92  87.73
828.7  38176.32  33448.82  87.62
829.9  38262.68  33473.44  87.48
831.0  38386.63  33538.29  87.37
832.2  38533.16  33617.29  87.24
833.4  38634.36  33680.38  87.18
834.6  38746.88  33761.88  87.13
835.8  38872.58  33853.68  87.09
837.0  39026.76  33968.44  87.04
838.1  39200.00  34119.78  87.04
839.3  39334.99  34220.84  87.00
840.5  39499.16  34362.76  87.00
841.7  39675.29  34532.10  87.04
842.9  39834.34  34714.50  87.15
844.0  40002.80  34844.36  87.10
845.2  40188.33  35012.50  87.12
846.4  40315.24  35136.51  87.15
847.5  40575.08  35358.13  87.14
848.7  40794.29  35525.82  87.09
849.9  41043.27  35660.18  86.88
851.0  41176.72  35717.93  86.74
852.2  41283.01  35771.93  86.65
853.3  41336.03  35777.41  86.55
854.5  41385.60  35762.54  86.41
855.6  41408.01  35788.05  86.43
856.8  41491.09  35830.91  86.36
857.9  41535.42  35862.45  86.34
859.1  41657.80  35971.57  86.35
860.2  41711.76  35982.31  86.26
861.4  41789.90  36048.11  86.26
862.5  41857.52  36092.26  86.23
863.7  41978.22  36177.05  86.18
864.8  42001.40  36196.39  86.18
865.9  42003.19  36183.69  86.15
867.1  42077.89  36199.54  86.03
868.2  42118.25  36191.01  85.93
869.3  42153.63  36215.20  85.91
870.5  42092.46  36159.70  85.91
871.6  42122.53  36166.54  85.86
872.7  42223.14  36216.18  85.77
873.9  42262.83  36229.49  85.72
875.0  42247.20  36194.40  85.67
876.1  42225.11  36164.26  85.65
877.2  42279.84  36168.40  85.55
878.3  42302.12  36113.84  85.37
879.4  42284.06  36119.09  85.42
880.5  42343.92  36132.82  85.33
881.7  42326.05  36083.75  85.25
882.8  42351.34  36083.64  85.20
883.9  42430.09  36051.71  84.97
885.0  42357.32  35955.51  84.89
886.1  42357.47  35864.56  84.67
887.2  42241.92  35700.29  84.51
888.3  42147.85  35550.95  84.35
889.4  42045.32  35434.56  84.28
890.5  41945.29  35314.01  84.19
891.6  41864.40  35230.45  84.15
892.7  41844.69  35182.71  84.08
893.8  41881.85  35214.07  84.08
894.9  41879.31  35165.72  83.97
896.0  41812.69  35091.70  83.93
897.0  41850.92  35086.58  83.84
898.1  41821.61  35061.55  83.84
899.2  41852.54  35032.47  83.70
900.3  41747.94  34930.80  83.67
901.4  41622.41  34809.47  83.63
902.4  41658.53  34797.20  83.53
903.5  41604.82  34699.21  83.40
904.6  41550.72  34694.34  83.50
905.7  41565.54  34646.27  83.35
906.7  41536.49  34606.35  83.32
907.8  41558.34  34585.78  83.22
908.9  41493.73  34471.86  83.08
909.9  41451.58  34395.89  82.98
911.0  41358.23  34292.25  82.92
912.1  41297.17  34189.74  82.79
913.1  41189.72  34063.61  82.70
914.2  41099.85  33924.26  82.54
915.2  41068.89  33874.76  82.48
916.3  41034.15  33804.18  82.38
917.3  40975.74  33725.51  82.31
918.4  40862.80  33548.33  82.10
919.4  40836.29  33432.13  81.87
920.5  40782.84  33343.86  81.76
921.5  40833.45  33257.79  81.45
922.6  40729.18  33123.31  81.33
923.6  40739.49  33045.67  81.11
924.7  40774.75  32950.90  80.81
925.7  40746.72  32828.33  80.57
926.7  40808.40  32738.87  80.23
927.8  40839.01  32655.70  79.96
928.8  40966.59  32594.23  79.56
929.9  41048.46  32542.58  79.28
930.9  41217.18  32553.58  78.98
931.9  41378.61  32573.93  78.72
932.9  41679.25  32658.63  78.36
934.0  41702.58  32563.71  78.09
935.0  41757.18  32441.15  77.69
936.0  41670.71  32280.79  77.47
937.0  41632.50  32103.02  77.11
938.1  41580.55  31936.15  76.81
939.1  41508.45  31778.28  76.56
940.1  41591.64  31716.15  76.26
941.1  41779.29  31701.08  75.88
942.1  41991.60  31739.48  75.59
943.1  42156.63  31682.58  75.15
944.1  42391.18  31722.02  74.83
945.2  42445.20  31557.01  74.35
946.2  42493.04  31435.97  73.98
947.2  42572.63  31322.47  73.57
948.2  42750.54  31235.27  73.06
949.2  42846.38  31121.41  72.63
950.2  42880.60  30968.07  72.22
951.2  42968.52  30818.15  71.72
952.2  43001.40  30645.28  71.27
953.2  43164.71  30575.62  70.83
954.2  43310.48  30467.58  70.35
955.2  43368.34  30295.88  69.86
956.2  43301.73  30166.14  69.66
957.2  43392.87  30012.07  69.16
958.2  43492.10  29941.66  68.84
959.2  43506.45  29875.65  68.67
960.1  43588.22  29799.75  68.37
961.1  43692.83  29800.48  68.20
962.1  43658.44  29740.94  68.12
963.1  43782.00  29721.90  67.89
964.1  43817.42  29725.86  67.84
965.1  43908.74  29839.02  67.96
966.1  44007.38  29819.57  67.76
967.0  44141.86  29831.16  67.58
968.0  44131.86  29798.19  67.52
969.0  44255.20  29874.40  67.50
970.0  44255.36  29855.26  67.46
971.0  44316.83  29945.56  67.57
971.9  44400.90  29906.05  67.35
972.9  44577.14  29960.69  67.21
973.9  44494.78  29971.28  67.36
974.9  44573.29  29977.67  67.25
975.8  44702.44  30034.36  67.19
976.8  44666.28  30049.50  67.28
977.8  44950.93  30128.70  67.03
978.8  44877.90  30261.37  67.43
979.7  45104.10  30238.08  67.04
980.7  45212.81  30462.64  67.38
981.7  45433.99  30579.18  67.30
982.6  45657.51  30796.82  67.45
983.6  46147.45  31111.56  67.42
984.6  46551.05  31529.13  67.73
985.5  47031.84  31900.06  67.83
986.5  47664.14  32440.07  68.06
987.5  48852.12  33160.78  67.88
988.4  49722.20  33759.88  67.90
989.4  51183.38  34530.05  67.46
990.4  52549.20  35256.62  67.09
991.3  54023.93  36209.10  67.02
992.3  54777.10  36896.29  67.36
993.2  55874.36  37623.56  67.34
994.2  57686.85  38002.48  65.88
995.2  57633.14  38459.40  66.73
996.1  59292.71  39263.59  66.22
997.1  59931.56  39541.80  65.98
998.0  60640.20  39170.60  64.60
999.0  59258.53  39602.04  66.83
1000.0  60377.42  38976.56  64.55
1000.9  59810.48  38955.51  65.13
1001.9  59598.95  38975.82  65.40
1002.8  60212.52  38636.37  64.17
1003.8  59788.51  38462.49  64.33
1004.8  59326.80  39155.69  66.00
961.5  55398.21  32581.50  58.81
965.5  54418.85  32554.64  59.82
969.5  52458.23  32072.13  61.14
973.4  50487.36  31329.21  62.05
977.4  48611.32  30694.63  63.14
981.4  47578.80  30462.93  64.03
985.3  47203.20  30397.99  64.40
989.3  47137.31  30505.64  64.72
993.3  47133.16  30649.34  65.03
997.2  47029.21  30727.99  65.34
1001.2  46955.35  30885.57  65.78
1005.2  46914.32  31139.75  66.38
1009.1  47038.13  31537.31  67.05
1013.1  47236.75  32011.95  67.77
1017.1  47375.30  32460.31  68.52
1021.0  47429.61  32804.69  69.17
1025.0  47461.87  33113.14  69.77
1029.0  47354.18  33334.74  70.39
1032.9  47271.77  33580.78  71.04
1036.9  47308.70  33935.02  71.73
1040.9  47476.08  34369.77  72.39
1044.8  47747.63  34838.14  72.96
1048.8  47970.59  35246.88  73.48
1052.7  48104.60  35572.84  73.95
1056.7  48183.46  35797.36  74.29
1060.7  48250.82  35968.31  74.54
1064.6  48272.17  36096.28  74.78
1068.6  48190.54  36101.57  74.91
1072.5  48116.11  36058.35  74.94
1076.5  48076.67  36001.41  74.88
1080.4  48048.88  35920.22  74.76
1084.4  48150.59  35850.41  74.45
1088.3  48279.53  35758.10  74.06
1092.3  48252.92  35539.89  73.65
1096.2  48221.83  35300.54  73.20
1100.2  48245.69  35099.69  72.75
1104.1  48124.97  34775.80  72.26
1108.1  48059.38  34474.22  71.73
1112.0  47955.87  34122.60  71.15
1116.0  47754.46  33654.92  70.47
1119.9  47569.76  33139.07  69.66
1123.9  47623.80  32657.24  68.57
1127.8  47592.96  31909.12  67.05
1131.8  47556.42  30939.74  65.06
1135.7  47568.82  29816.58  62.68
1139.6  47554.30  28575.30  60.09
1143.6  47510.71  27366.98  57.60
1147.5  47481.98  26332.67  55.46
1151.4  47337.52  25480.97  53.83
1155.4  47322.86  24957.90  52.74
1159.3  47329.81  24630.26  52.04
1163.2  47159.49  24328.62  51.59
1167.2  47113.86  24164.04  51.29
1171.1  47117.13  24057.00  51.06
1175.0  47022.16  23921.60  50.87
1179.0  46962.63  23802.96  50.68
1182.9  47045.30  23746.08  50.47
1186.8  47019.62  23649.21  50.30
1190.7  46784.64  23457.30  50.14
1194.7  46508.35  23265.77  50.02
1198.6  46264.68  23135.81  50.01
1202.5  46100.54  23072.72  50.05
1206.4  45962.62  23048.35  50.15
1210.3  45829.98  23056.02  50.31
1214.2  45707.13  23089.89  50.52
1218.2  45554.16  23125.23  50.76
1222.1  45384.95  23173.90  51.06
1226.0  45257.55  23246.55  51.37
1229.9  45156.00  23317.88  51.64
1233.8  45033.17  23368.74  51.89
1237.7  44950.68  23426.86  52.12
1241.6  44841.64  23466.12  52.33
1245.5  44683.61  23458.06  52.50
1249.4  44538.65  23449.85  52.65
1253.3  44401.40  23441.25  52.79
1257.2  44324.52  23444.92  52.89
1261.1  44209.48  23415.48  52.96
1265.0  44086.55  23350.79  52.97
1268.9  43910.05  23230.30  52.90
1272.8  43969.80  23206.60  52.78
1276.7  44155.69  23224.31  52.60
1280.6  44249.88  23162.61  52.35
1284.5  44188.89  22982.08  52.01
1288.4  44167.03  22792.92  51.61
1292.3  44060.50  22529.83  51.13
1296.2  43934.23  22222.23  50.58
1300.1  43787.98  21859.62  49.92
1303.9  43564.57  21410.94  49.15
1307.8  43339.22  20929.26  48.29
1311.7  43109.06  20420.54  47.37
1315.6  42877.90  19896.86  46.40
1319.5  42633.84  19331.82  45.34
1323.3  42417.44  18753.96  44.21
1327.2  42218.70  18182.11  43.07
1331.1  42002.86  17605.19  41.91
1335.0  41739.72  17015.17  40.76
1338.8  41543.11  16483.97  39.68
1342.7  41389.31  15995.95  38.65
1346.5  41042.00  15451.92  37.65
1350.4  40741.74  14950.32  36.70
1354.3  40332.24  14430.70  35.78
1358.1  39895.31  13921.34  34.89
1362.0  39644.33  13491.66  34.03
1365.8  39567.12  13113.96  33.14
1369.7  39683.68  12747.79  32.12
1373.5  39615.26  12210.68  30.82
1377.4  39354.79  11480.93  29.17
1381.2  39167.92  10659.68  27.22
1385.1  39160.09  9862.18  25.18
1389.0  39060.88  9059.15  23.19
1392.8  38834.72  8256.65  21.26
1396.6  38680.88  7539.05  19.49
1400.5  38476.57  6915.16  17.97
1404.3  38299.58  6412.30  16.74
1408.2  38263.03  6033.28  15.77
1412.0  38218.70  5740.42  15.02
1415.8  38249.29  5533.06  14.47
1419.6  38208.11  5362.84  14.04
1423.5  38172.20  5230.46  13.70
1427.3  38125.77  5131.91  13.46
1431.1  38099.78  5063.85  13.29
1434.9  38010.73  5001.31  13.16
1438.8  37949.80  4960.28  13.07
1442.6  37913.52  4935.27  13.02
1446.4  37795.09  4906.58  12.98
1450.2  37700.99  4888.61  12.97
1454.0  37583.52  4878.44  12.98
1457.8  37547.69  4896.04  13.04
1461.6  37527.24  4924.39  13.12
1465.4  37404.28  4953.24  13.24
1469.2  37216.73  4992.11  13.41
1473.0  37080.95  5053.42  13.63
1476.8  37019.78  5144.48  13.90
1480.7  36949.43  5247.78  14.20
1484.4  36826.56  5357.24  14.55
1488.2  36723.96  5493.28  14.96
1492.0  36584.11  5634.21  15.40
1495.8  36452.33  5767.13  15.82
1499.6  36350.05  5873.74  16.16
1503.4  36216.75  5954.90  16.44
1507.2  36087.28  6014.16  16.67
1510.9  35929.91  6030.10  16.78
1514.7  35749.31  6038.94  16.89
1518.5  35615.65  6127.96  17.21
1522.3  35466.30  6285.75  17.72
1526.0  35355.47  6442.99  18.22
1529.8  35294.61  6568.34  18.61
1533.6  35159.29  6674.47  18.98
1537.3  35020.99  6784.43  19.37
1541.1  34889.16  6894.21  19.76
1544.8  34754.40  7001.60  20.15
1548.6  34607.98  7097.41  20.51
1552.4  34514.76  7188.97  20.83
1556.1  34455.77  7271.77  21.10
1559.9  34373.05  7346.39  21.37
1563.6  34243.93  7426.61  21.69
1567.3  34122.03  7526.91  22.06
1571.1  33904.82  7600.21  22.42
1574.8  33749.79  7682.96  22.76
1578.6  33637.37  7767.37  23.09
1582.3  33496.17  7820.00  23.35
1586.0  33359.51  7864.47  23.57
1589.8  33217.24  7909.32  23.81
1593.5  33051.52  7945.82  24.04
1597.2  32917.71  7992.13  24.28
1600.9  32767.31  8028.42  24.50
1604.7  32613.52  8062.06  24.72
1608.4  32493.03  8109.02  24.96
1612.1  32320.35  8138.96  25.18
1615.8  32161.00  8165.16  25.39
1619.5  32072.28  8208.46  25.59
1623.2  31915.49  8236.57  25.81
1626.9  31725.78  8246.91  25.99
1630.6  31537.44  8257.85  26.18
1634.3  31397.73  8274.40  26.35
1638.0  31241.74  8268.93  26.47
1641.7  31050.65  8246.87  26.56
1645.4  30870.63  8217.80  26.62
1649.1  30683.95  8180.33  26.66
1652.8  30504.58  8145.13  26.70
1656.4  30322.32  8105.31  26.73
1660.1  30158.02  8063.87  26.74
1663.8  29966.42  8018.51  26.76
1667.5  29809.99  7987.29  26.79
1671.1  29676.54  7951.74  26.79
1674.8  29472.79  7893.32  26.78
1678.5  29413.48  7857.77  26.71
1682.1  29419.35  7817.38  26.57
1685.8  29417.21  7779.02  26.44
1689.5  29310.65  7713.62  26.32
1693.1  29167.59  7633.77  26.17
1696.8  29020.13  7546.17  26.00
1700.4  28874.60  7447.72  25.79
1704.0  28754.23  7357.79  25.59
1707.7  28493.62  7226.89  25.36
1711.3  28200.13  7077.67  25.10
1715.0  27991.44  6954.62  24.85
1718.6  27822.35  6843.77  24.60
1722.2  27677.55  6742.40  24.36
1725.9  27527.50  6638.16  24.11
1729.5  27386.37  6547.69  23.91
1733.1  27262.24  6484.50  23.79
1736.7  27144.69  6438.12  23.72
1740.3  26982.07  6372.30  23.62
1744.0  26899.89  6300.68  23.42
1747.5  26760.07  6203.85  23.18
1751.2  26551.35  6087.97  22.93
1754.8  26397.18  5981.58  22.66
1758.4  26262.14  5882.92  22.40
1762.0  26085.49  5789.34  22.19
1765.5  25956.49  5716.08  22.02
1769.1  25915.20  5674.40  21.90
1772.7  25841.75  5633.67  21.80
1776.3  25724.16  5582.50  21.70
1779.9  25608.69  5529.26  21.59
1783.5  25553.92  5497.33  21.51
1787.0  25434.82  5453.65  21.44
1790.6  25293.30  5405.34  21.37
1794.2  25193.03  5375.46  21.34
1797.8  25095.48  5349.26  21.32
1801.3  25012.46  5329.59  21.31
1804.9  24871.88  5300.75  21.31
1808.4  24792.34  5288.18  21.33
1812.0  24660.35  5255.34  21.31
1815.5  24519.60  5215.28  21.27
1819.1  24324.68  5168.65  21.25
1822.6  24164.48  5134.19  21.25
1826.2  24042.90  5098.85  21.21
1829.7  23859.90  5050.37  21.17
1833.2  23612.46  4983.45  21.11
1836.8  23400.20  4913.39  21.00
1840.3  23257.80  4867.28  20.93
1843.8  23131.92  4821.44  20.84
1847.3  23013.03  4792.85  20.83
1850.8  22865.47  4752.39  20.78
1854.3  22692.74  4669.72  20.58
1857.8  22594.00  4553.47  20.15
1861.3  22615.25  4383.22  19.38
1864.8  22605.64  4150.28  18.36
1868.3  22468.36  3851.23  17.14
1871.8  22341.12  3532.80  15.81
1875.3  22323.21  3246.12  14.54
1878.8  22320.32  2998.21  13.43
1882.3  22237.89  2775.49  12.48
1885.8  22045.10  2553.86  11.58
1889.3  21861.76  2360.50  10.80
1892.7  21710.01  2213.50  10.20
1896.2  21503.16  2125.56  9.88
1899.7  21232.37  2086.10  9.83
1903.1  21059.81  2143.07  10.18
1906.6  21101.81  2267.98  10.75
1910.0  21348.35  2467.01  11.56
1913.5  21771.66  2802.66  12.87
1917.0  22339.63  3298.64  14.77
1920.4  22881.38  3805.86  16.63
1923.8  23136.14  4135.97  17.88
1871.2  20260.60  2548.79  12.58
1873.9  20445.79  2473.40  12.10
1876.7  20658.97  2319.85  11.23
1879.5  20770.50  2121.82  10.22
1882.3  20488.21  1960.71  9.57
1885.1  20498.36  1787.21  8.72
1887.8  20542.45  1652.08  8.04
1890.6  20318.11  1548.94  7.62
1893.4  20320.67  1405.55  6.92
1896.2  20203.65  1295.10  6.41
1898.9  20201.38  1265.40  6.26
1901.7  20074.51  1218.77  6.07
1904.5  20223.67  1195.54  5.91
1907.2  20168.50  1201.75  5.96
1910.0  20030.00  1171.62  5.85
1912.7  20048.69  1139.61  5.68
1915.5  19979.54  1125.24  5.63
1918.2  19877.64  1118.83  5.63
1921.0  19705.09  1111.73  5.64
1923.7  19733.20  1110.56  5.63
1926.5  19715.86  1090.99  5.53
1929.2  19701.76  1081.71  5.49
1932.0  19674.16  1106.00  5.62
1934.7  19635.47  1109.97  5.65
1937.4  19518.79  1101.09  5.64
1940.2  19475.71  1096.16  5.63
1942.9  19573.26  1117.52  5.71
1945.6  19572.62  1135.52  5.80
1948.3  19494.00  1151.19  5.91
1951.1  19465.67  1172.90  6.03
1953.8  19476.00  1177.00  6.04
1956.5  19368.67  1186.02  6.12
1959.2  19423.04  1201.98  6.19
1961.9  19438.54  1226.77  6.31
1964.6  19331.55  1237.60  6.40
1967.3  19375.30  1241.06  6.41
1970.0  19228.16  1259.97  6.55
1972.8  19159.08  1290.41  6.74
1975.5  19219.42  1297.49  6.75
1978.2  19120.16  1299.40  6.80
1980.9  19002.89  1325.36  6.97
1983.5  18950.70  1340.74  7.07
1986.2  18944.10  1358.97  7.17
1988.9  18909.18  1396.80  7.39
1991.6  18787.78  1401.99  7.46
1994.3  18678.85  1396.03  7.47
1997.0  18669.58  1421.48  7.61
1999.7  18631.37  1446.36  7.76
2002.3  18617.79  1467.10  7.88
2005.0  18540.12  1486.28  8.02
2007.7  18469.93  1491.62  8.08
2010.4  18400.48  1516.96  8.24
2013.0  18316.11  1535.36  8.38
2015.7  18226.45  1530.71  8.40
2018.4  18129.14  1547.88  8.54
2021.0  18062.50  1573.44  8.71
2023.7  17946.51  1581.99  8.82
2026.4  17902.73  1582.03  8.84
2029.0  17806.29  1602.65  9.00
2031.7  17677.40  1616.77  9.15
2034.3  17722.47  1617.70  9.13
2037.0  17610.64  1632.70  9.27
2039.6  17527.07  1642.99  9.37
2042.3  17481.88  1643.81  9.40
2044.9  17393.81  1663.37  9.56
2047.5  17348.93  1680.20  9.68
2050.2  17253.60  1680.93  9.74
2052.8  17214.40  1706.13  9.91
2055.4  17090.17  1709.95  10.01
2058.1  16973.60  1698.67  10.01
2060.7  16918.14  1722.65  10.18
2063.3  16842.61  1724.02  10.24
2065.9  16794.67  1715.95  10.22
2068.6  16710.92  1742.00  10.42
2071.2  16664.67  1760.49  10.56
2073.8  16591.32  1750.82  10.55
2076.4  16536.88  1767.26  10.69
2079.0  16525.61  1788.10  10.82
2081.6  16519.89  1788.34  10.83
2084.2  16487.00  1806.81  10.96
2086.8  16353.42  1811.08  11.07
2089.4  16268.28  1803.17  11.08
2092.1  16209.50  1813.33  11.19
2094.7  16113.80  1830.60  11.36
2097.2  16087.67  1835.05  11.41
2099.8  16089.36  1855.08  11.53
2102.4  15953.94  1852.91  11.61
2105.0  15826.05  1844.90  11.66
2107.6  15774.07  1875.15  11.89
2110.2  15742.83  1884.02  11.97
2112.8  15734.02  1879.30  11.94
2115.3  15735.22  1895.58  12.05
2117.9  15738.64  1915.10  12.17
2120.5  15682.70  1907.39  12.16
2123.1  15604.88  1907.10  12.22
2125.6  15567.02  1931.72  12.41
2128.2  15487.92  1938.43  12.52
2130.8  15394.28  1930.50  12.54
2133.3  15347.20  1932.09  12.59
2135.9  15264.31  1935.62  12.68
2138.4  15119.35  1932.03  12.78
2141.0  15032.51  1917.75  12.76
2143.6  14998.41  1922.20  12.82
2146.1  14847.40  1926.57  12.98
2148.7  14686.27  1916.66  13.05
2151.2  14704.80  1926.22  13.10
2153.8  14713.72  1945.54  13.22
2156.3  14589.47  1922.62  13.18
2158.8  14533.35  1912.78  13.16
2161.4  14517.59  1932.14  13.31
2163.9  14426.20  1925.26  13.35
2166.4  14354.62  1912.96  13.33
2169.0  14310.27  1916.91  13.40
2171.5  14227.48  1904.09  13.38
2174.0  14143.15  1892.10  13.38
2176.5  14124.76  1896.66  13.43
2179.1  14082.55  1897.35  13.47
2181.6  13967.33  1882.79  13.48
2184.1  13937.00  1885.99  13.53
2186.6  13993.83  1899.74  13.58
2189.1  13896.09  1884.27  13.56
2191.6  13840.87  1876.15  13.56
2194.1  13877.92  1870.10  13.48
2196.6  13844.81  1865.90  13.48
2199.2  13897.52  1883.70  13.55
2201.7  13871.80  1881.57  13.56
2204.1  13802.39  1869.15  13.54
2206.6  13786.08  1891.11  13.72
2209.1  13743.34  1889.98  13.75
2211.6  13738.26  1866.54  13.59
2214.1  13693.60  1870.42  13.66
2216.6  13643.61  1881.44  13.79
2219.1  13655.01  1866.25  13.67
2221.6  13597.41  1839.89  13.53
2224.0  13563.60  1817.37  13.40
2226.5  13534.39  1802.30  13.32
2229.0  13551.73  1806.90  13.33
2231.5  13416.49  1770.74  13.20
2233.9  13376.81  1739.45  13.00
2236.4  13409.64  1742.15  12.99
2238.9  13341.63  1736.00  13.01
2241.3  13300.17  1717.91  12.92
2243.8  13261.31  1708.84  12.89
2246.2  13153.53  1664.38  12.65
2248.7  13089.53  1635.23  12.49
2251.2  13067.33  1648.79  12.62
2253.6  13017.60  1624.32  12.48
2256.1  12979.20  1582.08  12.19
2258.5  12980.99  1563.56  12.04
2260.9  12912.45  1540.39  11.93
2263.4  12850.74  1509.74  11.75
2265.8  12840.17  1500.20  11.68
2268.3  12768.77  1468.78  11.50
2270.7  12812.36  1443.21  11.26
2273.1  12778.22  1453.47  11.37
2275.6  12710.40  1429.76  11.25
2278.0  12729.12  1401.54  11.01
2280.4  12680.26  1418.75  11.19
2282.8  12544.20  1400.25  11.16
2285.3  12570.98  1351.84  10.75
2287.7  12679.54  1360.24  10.73
2290.1  12579.51  1344.13  10.69
2292.5  12520.09  1300.29  10.39
2294.9  12538.64  1302.73  10.39
2297.3  12458.25  1266.92  10.17
2299.7  12334.59  1222.67  9.91
2302.1  12311.40  1223.02  9.93
2304.5  12214.72  1196.91  9.80
2306.9  12089.28  1147.25  9.49
2309.3  11994.02  1135.01  9.46
2311.7  11939.85  1127.79  9.45
2314.1  11791.37  1111.92  9.43
2316.5  11721.50  1137.35  9.70
2318.9  11765.88  1150.97  9.78
2321.3  11730.50  1133.04  9.66
2323.7  11744.39  1139.43  9.70
2326.1  11719.24  1132.43  9.66
2328.4  11761.55  1117.44  9.50
2330.8  11807.83  1120.66  9.49
2333.2  11712.54  1089.99  9.31
2335.6  11662.03  1066.98  9.15
2337.9  11681.16  1071.16  9.17
2340.3  11629.38  1059.38  9.11
2342.7  11548.22  1040.99  9.01
2345.0  11508.47  1039.02  9.03
2347.4  11492.00  1022.83  8.90
2349.7  11315.65  976.79  8.63
2352.1  11286.89  989.18  8.76
2354.4  11296.02  994.35  8.80
2356.8  11214.70  958.30  8.55
2359.2  11154.00  953.33  8.55
2361.5  11109.05  955.57  8.60
2363.8  11141.66  931.03  8.36
2366.2  11165.73  932.68  8.35
2368.5  11089.40  934.50  8.43
2370.9  11067.03  902.12  8.15
2373.2  11030.32  908.33  8.23
2375.5  10914.30  903.50  8.28
2377.9  10876.18  858.49  7.89
2380.2  10876.88  876.63  8.06
2382.5  10821.23  879.18  8.12
2384.8  10769.44  829.01  7.70
2387.2  10736.28  847.03  7.89
2389.5  10704.02  842.03  7.87
2391.8  10661.73  796.98  7.48
2394.1  10613.91  826.92  7.79
2396.4  10610.47  832.19  7.84
2398.7  10654.34  792.46  7.44
2401.0  10513.07  799.44  7.60
2403.3  10428.12  790.16  7.58
2405.6  10456.51  758.08  7.25
2407.9  10375.71  783.23  7.55
2410.2  10317.44  760.35  7.37
2412.5  10224.31  713.13  6.97
2414.8  10187.84  744.58  7.31
2417.1  10204.62  746.72  7.32
2419.4  10195.97  715.51  7.02
2421.7  10103.31  711.40  7.04
2424.0  10048.90  700.92  6.98
2426.2  10074.05  684.80  6.80
2428.5  10032.46  710.30  7.08
2430.8  10006.20  704.87  7.04
2433.1  9945.94  678.55  6.82
2435.4  9886.37  673.27  6.81
2437.6  9830.42  654.62  6.66
2439.9  9708.34  636.37  6.55
2442.2  9709.99  648.47  6.68
2444.4  9752.18  635.59  6.52
2446.7  9688.56  609.31  6.29
2448.9  9658.24  637.57  6.60
2451.2  9631.36  615.87  6.39
2453.4  9564.32  576.55  6.03
2455.7  9566.46  600.06  6.27
2457.9  9468.86  586.08  6.19
2460.2  9395.46  536.36  5.71
2462.4  9422.40  553.28  5.87
2464.7  9348.95  588.78  6.30
2466.9  9251.22  562.82  6.08
2469.2  9249.34  555.26  6.00
2471.4  9151.61  564.59  6.17
2473.6  9078.42  531.14  5.85
2475.9  9042.40  519.29  5.74
2478.1  8956.32  526.04  5.87
2480.3  8952.70  489.64  5.47
2482.5  8971.16  483.70  5.39
2484.8  8832.66  492.73  5.58
2487.0  8762.09  496.24  5.66
2489.2  8850.00  510.10  5.76
2491.4  8753.22  489.28  5.59
2493.6  8669.20  465.08  5.36
2495.8  8662.66  488.30  5.64
2498.0  8674.13  497.21  5.73
2500.2  8694.60  454.95  5.23
2502.4  8942.16  500.24  5.59
2504.6  9089.52  513.32  5.65
2506.8  9176.65  487.09  5.31
