/*** Spectra Vista SIG Data ***/
name= RS5.sig
comm= Resampled spectral data SIG file reprocesed for matching/overlap;Averaged Ref/Tar of files: RD4S13,RD4S14,RD4S15
data=
346.0  300.98  71.77  23.85
356.0  463.72  86.43  18.64
366.0  636.68  91.03  14.30
376.0  885.46  92.31  10.42
386.0  1110.03  86.44  7.79
396.0  1411.36  105.15  7.45
406.0  1724.09  101.71  5.90
416.0  2114.15  116.69  5.52
426.0  2411.20  117.51  4.87
436.0  2948.34  126.40  4.29
446.0  3434.75  143.69  4.18
456.0  3900.43  149.54  3.83
466.0  4655.33  176.56  3.79
476.0  5313.35  194.20  3.66
486.0  5742.38  193.75  3.37
496.0  6668.62  233.47  3.50
506.0  7414.48  294.47  3.97
516.0  7736.05  352.22  4.55
526.0  8614.28  431.79  5.01
536.0  9808.20  525.15  5.35
546.0  10787.45  619.23  5.74
556.0  10874.02  682.17  6.27
566.0  11620.97  844.10  7.26
576.0  12831.36  1138.05  8.87
586.0  13800.83  1551.42  11.24
596.0  14570.41  2068.05  14.19
606.0  14819.23  2632.51  17.76
616.0  15785.73  3397.30  21.52
626.0  17422.26  4338.26  24.90
636.0  17172.91  4811.23  28.02
646.0  17313.58  4769.06  27.55
656.0  16958.91  4586.64  27.05
666.0  17952.46  4135.65  23.04
676.0  19107.41  4100.79  21.46
686.0  20744.30  6323.88  30.48
696.0  21302.17  10667.66  50.08
706.0  21485.54  13139.24  61.15
716.0  21106.17  13880.85  65.77
726.0  20444.90  13807.69  67.54
736.0  20072.78  13584.04  67.67
746.0  21269.54  14533.97  68.33
756.0  21715.17  14776.73  68.05
766.0  22630.30  15606.88  68.96
776.0  23222.43  16115.51  69.40
786.0  23351.40  16391.53  70.20
796.0  22865.98  15949.73  69.75
806.0  22206.84  15531.50  69.94
816.0  22105.85  15459.40  69.93
826.0  21970.10  15144.81  68.93
836.0  22256.75  15056.30  67.65
846.0  22764.08  15379.94  67.56
856.0  23134.08  15488.18  66.95
866.0  23280.52  15527.52  66.70
876.0  23337.25  15447.56  66.19
886.0  23426.87  15250.30  65.10
896.0  23219.08  14845.52  63.94
906.0  23187.39  14586.28  62.91
916.0  23019.76  14187.42  61.63
926.0  22972.36  13646.19  59.40
936.0  23654.47  13283.77  56.16
946.0  24257.59  12749.39  52.56
956.0  24792.19  12010.45  48.44
966.0  25310.85  11767.34  46.49
976.0  25805.97  11836.29  45.87
986.0  26419.21  11406.91  43.18
996.0  26647.14  11873.45  44.56
1006.0  26606.80  12199.43  45.85
1016.0  26773.23  12695.95  47.42
1026.0  26768.69  13133.95  49.06
1036.0  26610.23  13458.44  50.58
1046.0  26817.96  13963.56  52.07
1056.0  26974.32  14350.06  53.20
1066.0  27001.14  14517.70  53.77
1076.0  26907.02  14478.47  53.81
1086.0  27000.17  14372.38  53.23
1096.0  27021.97  14097.89  52.17
1106.0  26988.71  13752.44  50.96
1116.0  26827.19  13276.15  49.49
1126.0  26782.22  12605.80  47.07
1136.0  26806.48  11395.52  42.51
1146.0  26783.32  9975.78  37.25
1156.0  26689.55  9078.98  34.02
1166.0  26634.11  8738.70  32.81
1176.0  26621.63  8584.44  32.25
1186.0  26686.27  8471.99  31.75
1196.0  26376.31  8288.53  31.42
1206.0  26163.12  8214.70  31.40
1216.0  26024.95  8251.63  31.71
1226.0  25846.71  8340.29  32.27
1236.0  25752.82  8426.58  32.72
1246.0  25614.66  8491.64  33.15
1256.0  25475.83  8510.38  33.41
1266.0  25314.04  8488.05  33.53
1276.0  25373.13  8456.52  33.33
1286.0  25403.93  8333.03  32.80
1296.0  25257.97  8056.18  31.90
1306.0  24949.96  7608.20  30.49
1316.0  24591.02  7064.62  28.73
1326.0  24232.82  6449.57  26.62
1336.0  23855.58  5830.93  24.44
1346.0  23503.73  5296.14  22.53
1356.0  22973.78  4823.95  21.00
1366.0  22619.97  4385.06  19.39
1376.0  22547.29  3853.11  17.09
1386.0  22336.04  3025.05  13.54
1396.0  22099.31  2203.23  9.97
1406.0  21849.51  1642.58  7.52
1416.0  21811.39  1351.23  6.20
1426.0  21760.87  1200.89  5.52
1436.0  21688.98  1135.27  5.23
1446.0  21571.09  1095.72  5.08
1456.0  21448.73  1085.88  5.06
1466.0  21345.12  1101.39  5.16
1476.0  21146.04  1150.93  5.44
1486.0  21006.72  1257.36  5.99
1496.0  20823.92  1385.21  6.65
1506.0  20651.18  1471.77  7.13
1516.0  20455.77  1534.00  7.50
1526.0  20257.55  1619.87  8.00
1536.0  20096.43  1720.13  8.56
1546.0  19894.80  1819.79  9.15
1556.0  19746.35  1913.51  9.69
1566.0  19580.39  1997.02  10.20
1576.0  19339.02  2095.94  10.84
1586.0  19146.44  2163.59  11.30
1596.0  18933.87  2210.17  11.67
1606.0  18729.11  2263.37  12.08
1616.0  18504.97  2314.93  12.51
1626.0  18305.91  2354.32  12.86
1636.0  18069.01  2383.90  13.19
1646.0  17818.51  2386.13  13.39
1656.0  17552.22  2367.90  13.49
1666.0  17298.94  2345.84  13.56
1676.0  17076.69  2310.30  13.53
1686.0  17060.73  2285.24  13.39
1696.0  16861.46  2213.23  13.13
1706.0  16611.03  2126.22  12.80
1716.0  16237.09  2003.11  12.34
1726.0  15996.13  1904.58  11.91
1736.0  15803.28  1838.67  11.63
1746.0  15603.66  1770.37  11.35
1756.0  15326.26  1676.95  10.94
1766.0  15088.96  1597.74  10.59
1776.0  14960.65  1557.95  10.41
1786.0  14796.56  1517.48  10.26
1796.0  14599.28  1483.61  10.16
1806.0  14432.56  1474.91  10.22
1816.0  14220.87  1456.90  10.24
1826.0  13958.76  1433.50  10.27
1836.0  13625.22  1387.62  10.18
1846.0  13402.12  1337.27  9.98
1856.0  13193.00  1237.44  9.38
1866.0  13077.36  1045.05  7.99
1876.0  12862.98  767.30  5.97
1886.0  12714.37  550.12  4.33
1896.0  12428.70  425.51  3.42
1906.0  11584.61  212.49  1.83
1916.0  11419.95  188.58  1.65
1926.0  11288.15  192.76  1.71
1936.0  11206.69  175.87  1.57
1946.0  11198.13  190.60  1.70
1956.0  11063.98  195.63  1.77
1966.0  11075.86  208.53  1.88
1976.0  10974.82  217.36  1.98
1986.0  10831.42  230.99  2.13
1996.0  10659.46  251.96  2.36
2006.0  10562.82  259.09  2.45
2016.0  10412.68  276.54  2.66
2026.0  10222.99  284.99  2.79
2036.0  10070.22  313.61  3.11
2046.0  9949.56  315.68  3.17
2056.0  9753.19  326.10  3.34
2066.0  9593.30  341.58  3.56
2076.0  9443.55  354.49  3.75
2086.0  9354.07  368.21  3.94
2096.0  9210.37  374.89  4.07
2106.0  9026.55  375.97  4.17
2116.0  8990.49  390.35  4.34
2126.0  8894.38  399.88  4.50
2136.0  8704.97  405.51  4.66
2146.0  8486.07  408.79  4.82
2156.0  8343.29  427.94  5.13
2166.0  8183.41  408.11  4.99
2176.0  8051.70  427.35  5.31
2186.0  7958.55  420.61  5.28
2196.0  7908.78  413.73  5.23
2206.0  7862.30  415.59  5.29
2216.0  7807.07  413.80  5.30
2226.0  7710.20  391.01  5.07
2236.0  7642.35  388.79  5.09
2246.0  7476.81  373.85  5.00
2256.0  7391.85  345.91  4.68
2266.0  7320.92  310.72  4.24
2276.0  7252.25  295.30  4.07
2286.0  7189.78  278.54  3.87
2296.0  7136.98  252.73  3.54
2306.0  6908.51  223.77  3.24
2316.0  6711.36  229.21  3.42
2326.0  6670.62  223.18  3.35
2336.0  6631.35  205.24  3.09
2346.0  6585.90  198.00  3.01
2356.0  6421.23  180.08  2.80
2366.0  6363.62  182.84  2.87
2376.0  6263.23  155.04  2.48
2386.0  6151.80  150.01  2.44
2396.0  6055.25  146.05  2.41
2406.0  5958.69  139.43  2.34
2416.0  5857.57  116.55  1.99
2426.0  5766.53  103.79  1.80
2436.0  5600.60  114.11  2.04
2446.0  5521.33  90.45  1.64
2456.0  5420.45  86.02  1.59
2466.0  5315.59  110.59  2.08
2476.0  5191.59  87.57  1.69
2486.0  5020.73  65.55  1.31
2496.0  4966.51  75.49  1.52
2506.0  5248.23  66.49  1.27
