/*** Spectra Vista SIG Data ***/
name= RS1.sig
comm= SIG file reprocesed for matching/overlap;Averaged Ref/Tar of files: RD5S1,RD5S2,RD5S3
data=
346.4  366.28  150.23  41.02
347.9  400.03  149.66  37.41
349.5  432.12  157.04  36.34
351.1  468.00  157.46  33.65
352.6  496.51  164.45  33.12
354.2  520.33  173.11  33.27
355.7  575.84  186.34  32.36
357.3  598.14  192.91  32.25
358.8  616.87  186.86  30.29
360.4  668.33  202.96  30.37
361.9  686.05  204.89  29.87
363.5  715.01  210.52  29.44
365.1  743.78  207.47  27.89
366.6  778.54  218.43  28.06
368.2  824.27  215.22  26.11
369.7  873.39  220.61  25.26
371.3  928.49  228.50  24.61
372.8  977.74  231.07  23.63
374.4  1016.27  233.41  22.97
375.9  1052.58  240.64  22.86
377.4  1084.71  245.24  22.61
379.0  1129.79  244.73  21.66
380.5  1157.14  246.61  21.31
382.1  1186.43  248.32  20.93
383.6  1234.64  249.48  20.21
385.2  1293.88  247.68  19.14
386.7  1345.63  253.24  18.82
388.3  1410.38  264.32  18.74
389.8  1464.46  272.67  18.62
391.3  1527.57  277.39  18.16
392.9  1567.60  286.30  18.26
394.4  1609.87  292.69  18.18
395.9  1662.63  308.35  18.55
397.5  1749.05  325.58  18.61
399.0  1827.74  333.92  18.27
400.6  1876.29  333.85  17.79
402.1  1904.04  322.24  16.92
403.6  1943.17  319.75  16.46
405.1  1994.81  322.49  16.17
406.7  2061.92  329.88  16.00
408.2  2135.06  337.02  15.79
409.7  2198.56  343.24  15.61
411.3  2272.05  351.21  15.46
412.8  2335.64  362.29  15.51
414.3  2399.77  374.96  15.62
415.8  2475.00  385.67  15.58
417.4  2547.71  396.79  15.57
418.9  2612.23  406.99  15.58
420.4  2658.25  408.19  15.36
421.9  2705.56  415.19  15.35
423.5  2743.63  417.89  15.23
425.0  2788.02  417.29  14.97
426.5  2844.45  422.91  14.87
428.0  2917.63  426.65  14.62
429.5  3009.90  435.69  14.48
431.1  3112.45  444.66  14.29
432.6  3227.88  459.67  14.24
434.1  3329.29  468.35  14.07
435.6  3423.98  478.98  13.99
437.1  3517.80  490.43  13.94
438.6  3607.74  504.15  13.97
440.1  3694.39  515.52  13.95
441.6  3790.73  523.39  13.81
443.1  3873.83  531.02  13.71
444.7  3959.99  544.30  13.74
446.2  4024.76  547.16  13.59
447.7  4101.41  559.15  13.63
449.2  4174.20  570.17  13.66
450.7  4238.00  578.86  13.66
452.2  4313.18  585.11  13.57
453.7  4393.64  589.23  13.41
455.2  4491.99  596.60  13.28
456.7  4618.24  611.54  13.24
458.2  4761.06  627.06  13.17
459.7  4899.13  642.60  13.12
461.2  5044.37  659.87  13.08
462.7  5165.05  673.64  13.04
464.2  5287.79  692.11  13.09
465.7  5408.14  709.20  13.11
467.2  5518.98  721.04  13.06
468.7  5631.00  735.27  13.06
470.2  5705.20  744.55  13.05
471.7  5821.13  762.85  13.10
473.2  6011.22  801.49  13.33
474.6  6153.75  836.35  13.59
476.1  6204.18  828.43  13.35
477.6  6220.94  809.16  13.01
479.1  6250.52  805.58  12.89
480.6  6293.37  807.08  12.82
482.1  6374.96  809.22  12.69
483.6  6474.12  816.50  12.61
485.1  6599.29  829.30  12.57
486.6  6739.10  844.89  12.54
488.0  6898.13  864.50  12.53
489.5  7058.36  884.37  12.53
491.0  7224.81  906.23  12.54
492.5  7392.87  924.05  12.50
494.0  7557.79  951.19  12.59
495.4  7702.20  973.89  12.64
496.9  7844.83  995.88  12.69
498.4  7990.29  1021.93  12.79
499.9  8131.50  1050.25  12.92
501.4  8263.45  1075.21  13.01
502.8  8392.79  1102.44  13.14
504.3  8499.60  1130.46  13.30
505.8  8611.18  1160.52  13.48
507.2  8674.01  1182.77  13.64
508.7  8728.20  1204.17  13.80
510.2  8764.92  1230.34  14.04
511.6  8789.76  1252.45  14.25
513.1  8840.43  1283.69  14.52
514.6  8904.34  1315.39  14.77
516.0  8958.85  1344.66  15.01
517.5  9056.55  1377.43  15.21
519.0  9171.31  1413.69  15.41
520.5  9287.32  1452.66  15.64
521.9  9437.16  1500.16  15.90
523.4  9612.27  1550.61  16.13
524.8  9785.79  1601.43  16.36
526.3  9984.58  1655.02  16.58
527.8  10184.06  1708.21  16.77
529.2  10366.76  1762.63  17.00
530.7  10567.61  1816.32  17.19
532.1  10746.40  1872.14  17.42
533.6  10959.02  1930.27  17.61
535.0  11168.56  1985.39  17.78
536.5  11376.00  2041.58  17.95
538.0  11592.92  2096.50  18.08
539.4  11785.91  2149.77  18.24
540.9  12037.93  2220.02  18.44
542.3  12246.63  2284.08  18.65
543.8  12400.56  2334.52  18.83
545.2  12445.48  2361.64  18.98
546.6  12442.01  2375.58  19.09
548.1  12455.19  2391.99  19.20
549.5  12460.55  2411.97  19.36
551.0  12456.77  2434.82  19.55
552.4  12484.13  2455.45  19.67
553.9  12491.52  2476.47  19.83
555.3  12509.64  2500.35  19.99
556.8  12569.08  2536.21  20.18
558.2  12630.94  2576.87  20.40
559.6  12713.51  2618.00  20.59
561.1  12831.00  2672.26  20.83
562.5  12959.42  2727.14  21.04
564.0  13129.35  2800.17  21.33
565.4  13288.41  2871.75  21.61
566.8  13487.87  2954.17  21.90
568.3  13678.39  3038.44  22.21
569.7  13879.32  3130.45  22.55
571.1  14074.77  3222.10  22.89
572.6  14269.77  3321.00  23.27
574.0  14463.08  3419.52  23.64
575.4  14650.03  3522.38  24.04
576.9  14818.07  3625.32  24.47
578.3  14977.46  3729.92  24.90
579.7  15131.24  3840.10  25.38
581.1  15254.19  3945.52  25.87
582.6  15387.18  4058.62  26.38
584.0  15508.86  4183.47  26.97
585.4  15681.05  4316.73  27.53
586.8  15909.04  4482.65  28.18
588.3  16162.38  4657.07  28.81
589.7  16371.81  4828.51  29.49
591.1  16519.39  4977.74  30.13
592.5  16589.78  5109.48  30.80
594.0  16627.80  5234.47  31.48
595.4  16637.76  5354.52  32.18
596.8  16651.64  5479.69  32.91
598.2  16659.51  5618.16  33.72
599.6  16659.36  5747.08  34.50
601.0  16705.59  5901.44  35.33
602.4  16752.94  6056.07  36.15
603.9  16822.23  6228.75  37.03
605.3  16905.11  6412.90  37.93
606.7  16973.10  6592.68  38.84
608.1  17114.04  6798.88  39.73
609.5  17255.15  7019.82  40.68
610.9  17434.91  7255.95  41.62
612.3  17598.49  7490.14  42.56
613.7  17818.60  7754.41  43.52
615.1  17967.42  7994.48  44.49
616.5  18122.06  8234.03  45.44
617.9  18356.64  8521.88  46.42
619.3  18578.68  8809.10  47.42
620.7  18848.67  9118.83  48.38
622.1  19119.58  9457.08  49.46
623.5  19414.06  9846.00  50.72
624.9  19741.18  10269.18  52.02
626.3  19952.52  10649.25  53.37
627.7  19741.37  10781.96  54.62
629.1  19544.02  10897.49  55.76
630.5  19457.12  11057.48  56.83
631.9  19461.81  11238.48  57.75
633.3  19457.49  11409.37  58.64
634.7  19533.17  11617.92  59.48
636.1  19566.68  11775.33  60.18
637.5  19597.55  11897.97  60.71
638.9  19677.50  11971.37  60.84
640.2  19731.43  11965.16  60.64
641.6  19754.28  11868.48  60.08
643.0  19715.36  11753.85  59.62
644.4  19707.26  11694.47  59.34
645.8  19650.11  11679.36  59.44
647.2  19716.78  11787.91  59.79
648.5  19765.84  11899.20  60.20
649.9  19671.60  11968.24  60.84
651.3  19608.23  12082.33  61.62
652.7  19503.68  12190.96  62.51
654.1  19390.95  12159.37  62.71
655.5  19238.75  12051.94  62.64
656.8  19118.09  11944.03  62.48
658.2  19225.93  11980.33  62.31
659.6  19449.31  12084.39  62.13
660.9  19643.18  12149.27  61.85
662.3  19825.21  12187.75  61.48
663.7  20008.80  12207.30  61.01
665.0  20165.89  12214.76  60.57
666.4  20328.89  12229.96  60.16
667.8  20535.62  12283.62  59.82
669.1  20711.76  12334.83  59.55
670.5  20914.18  12432.02  59.44
671.9  21055.86  12515.81  59.44
673.2  21237.33  12668.43  59.65
674.6  21400.77  12845.12  60.02
676.0  21596.49  13087.15  60.60
677.3  21793.24  13388.45  61.43
678.7  21992.69  13767.59  62.60
680.0  22269.19  14274.42  64.10
681.4  22542.00  14890.14  66.06
682.8  22829.63  15629.33  68.46
684.1  23112.18  16475.47  71.28
685.5  23364.31  17391.30  74.44
686.8  23617.23  18360.62  77.74
688.2  23841.32  19310.63  81.00
689.5  23927.84  20140.21  84.17
690.9  23997.39  20915.88  87.16
692.2  24047.78  21616.86  89.89
693.6  24110.83  22257.41  92.31
694.9  24095.99  22772.78  94.51
696.2  24121.97  23254.81  96.41
697.6  24149.95  23688.41  98.09
698.9  24174.48  24077.15  99.60
700.3  24215.57  24425.78  100.87
701.6  24264.40  24747.60  101.99
703.0  24323.35  25034.80  102.92
704.3  24329.34  25256.89  103.81
705.6  24327.41  25424.15  104.51
707.0  24334.75  25593.32  105.17
708.3  24282.08  25673.47  105.73
709.6  24223.21  25732.08  106.23
711.0  24124.28  25748.46  106.73
712.3  24015.02  25741.36  107.19
713.6  23977.17  25781.45  107.52
714.9  23907.38  25786.69  107.86
716.3  23880.58  25843.77  108.22
717.6  23876.83  25910.48  108.52
718.9  23805.06  25892.97  108.77
720.2  23675.16  25806.13  109.00
721.6  23576.15  25732.24  109.15
722.9  23446.45  25633.05  109.33
724.2  23274.82  25480.89  109.48
725.5  23133.68  25374.81  109.69
726.8  23009.81  25255.42  109.76
728.1  22933.91  25178.90  109.79
729.5  22856.87  25106.39  109.84
730.8  22796.53  25055.97  109.91
732.1  22719.29  24978.25  109.94
733.4  22660.56  24926.26  110.00
734.7  22602.67  24867.34  110.02
736.0  22569.89  24862.85  110.16
737.3  22520.76  24823.73  110.23
738.6  22554.56  24895.49  110.38
739.9  22633.16  25017.90  110.54
741.2  22698.59  25119.55  110.67
742.5  22841.25  25307.03  110.80
743.8  23091.34  25626.95  110.98
745.1  23491.07  26100.75  111.11
746.4  23957.57  26649.53  111.24
747.7  24466.55  27221.74  111.26
749.0  24948.63  27761.79  111.28
750.3  25229.30  28046.57  111.17
751.6  25175.69  27980.16  111.14
752.9  24925.64  27703.69  111.15
754.2  24630.59  27410.46  111.29
755.4  24314.44  27110.36  111.50
756.7  24210.69  27035.12  111.67
758.0  24235.24  27096.85  111.81
759.3  24394.18  27315.87  111.98
760.6  24621.52  27602.14  112.11
761.9  24823.09  27868.06  112.27
763.1  24955.30  28046.39  112.39
764.4  25125.21  28250.53  112.44
765.7  25257.38  28414.97  112.50
767.0  25349.99  28555.29  112.64
768.2  25431.84  28685.78  112.79
769.5  25509.93  28787.65  112.85
770.8  25646.87  28962.44  112.93
772.0  25674.66  29026.10  113.05
773.3  25762.96  29136.33  113.09
774.6  25839.71  29258.56  113.23
775.8  25921.43  29369.65  113.30
777.1  25948.26  29428.05  113.41
778.4  25918.05  29423.68  113.53
779.6  25945.86  29462.29  113.55
780.9  25904.00  29446.40  113.68
782.1  25811.51  29376.98  113.81
783.4  25819.04  29418.41  113.94
784.6  25849.06  29474.65  114.03
785.9  26028.56  29751.17  114.30
787.1  26416.14  30209.28  114.36
788.4  26716.91  30540.81  114.31
789.6  26732.54  30506.19  114.12
790.9  26499.75  30230.56  114.08
792.1  26215.36  29933.59  114.18
793.4  25939.41  29671.33  114.39
794.6  25766.06  29477.38  114.40
795.8  25608.38  29326.57  114.52
797.1  25427.85  29150.68  114.64
798.3  25301.10  29037.28  114.77
799.5  25235.55  28978.37  114.83
800.8  25155.70  28920.13  114.96
802.0  25074.70  28847.54  115.05
803.2  24986.56  28751.57  115.07
804.5  24925.76  28695.26  115.12
805.7  24855.66  28615.97  115.13
806.9  24776.64  28534.80  115.17
808.1  24708.89  28475.43  115.24
809.4  24677.19  28438.48  115.24
810.6  24617.78  28370.92  115.25
811.8  24606.91  28347.83  115.20
813.0  24601.75  28350.41  115.24
814.2  24620.30  28372.53  115.24
815.4  24684.78  28432.63  115.18
816.6  24715.54  28441.74  115.08
817.9  24752.29  28453.71  114.95
819.1  24717.85  28376.70  114.80
820.3  24615.89  28270.16  114.85
821.5  24558.22  28175.08  114.73
822.7  24525.20  28111.63  114.62
823.9  24512.51  28072.59  114.52
825.1  24512.73  28034.05  114.37
826.3  24527.23  28001.33  114.16
827.5  24554.23  27983.50  113.97
828.7  24585.24  27960.70  113.73
829.9  24620.63  27940.11  113.48
831.0  24677.45  27948.63  113.26
832.2  24735.00  27949.95  113.00
833.4  24800.15  27955.17  112.72
834.6  24827.34  27969.53  112.66
835.8  24886.58  28006.97  112.54
837.0  24941.18  28033.06  112.40
838.1  25036.55  28113.48  112.29
839.3  25073.20  28145.03  112.25
840.5  25138.07  28186.95  112.13
841.7  25214.76  28272.53  112.13
842.9  25311.78  28357.64  112.03
844.0  25352.29  28417.28  112.09
845.2  25454.19  28529.47  112.08
846.4  25527.43  28592.63  112.01
847.5  25656.16  28718.70  111.94
848.7  25745.00  28820.03  111.94
849.9  25879.71  28919.68  111.75
851.0  25913.04  28945.01  111.70
852.2  25966.07  28984.50  111.62
853.3  25941.98  28962.55  111.64
854.5  25934.86  28955.75  111.65
855.6  25916.94  28926.31  111.61
856.8  25944.85  28937.21  111.53
857.9  25943.54  28917.19  111.46
859.1  25996.60  28976.53  111.46
860.2  26027.46  28974.03  111.32
861.4  26023.97  28987.41  111.39
862.5  26059.24  29003.65  111.30
863.7  26115.12  29044.99  111.22
864.8  26101.25  29039.89  111.26
865.9  26082.46  28986.59  111.13
867.1  26099.25  29010.35  111.15
868.2  26099.69  29000.27  111.11
869.3  26128.19  28992.76  110.96
870.5  26099.47  28951.89  110.93
871.6  26087.08  28938.07  110.93
872.7  26136.21  28955.26  110.79
873.9  26148.82  28965.34  110.77
875.0  26142.73  28909.14  110.58
876.1  26142.29  28907.74  110.58
877.2  26184.05  28892.00  110.34
878.3  26169.01  28848.96  110.24
879.4  26191.11  28852.03  110.16
880.5  26214.48  28862.70  110.10
881.7  26220.35  28831.40  109.96
882.8  26271.44  28828.66  109.73
883.9  26272.50  28818.89  109.69
885.0  26275.91  28757.55  109.44
886.1  26278.81  28686.58  109.16
887.2  26194.66  28538.14  108.95
888.3  26154.69  28439.08  108.73
889.4  26083.75  28325.33  108.59
890.5  26060.47  28245.98  108.39
891.6  26043.45  28176.06  108.19
892.7  26025.13  28131.09  108.09
893.8  26046.70  28099.60  107.88
894.9  26070.72  28090.88  107.75
896.0  26059.51  28042.16  107.61
897.0  26054.12  28024.95  107.56
898.1  26079.30  27996.24  107.35
899.2  26095.96  27949.95  107.10
900.3  26052.56  27871.40  106.98
901.4  26029.33  27799.50  106.80
902.4  26018.83  27767.30  106.72
903.5  26017.27  27701.06  106.47
904.6  26012.16  27658.15  106.33
905.7  26050.43  27650.87  106.14
906.7  26024.14  27583.08  105.99
907.8  26076.86  27575.13  105.75
908.9  26057.48  27484.01  105.47
909.9  26017.06  27414.08  105.37
911.0  26009.49  27329.25  105.07
912.1  25979.15  27247.54  104.88
913.1  25944.88  27152.88  104.66
914.2  25856.17  27020.67  104.50
915.2  25844.13  26958.35  104.31
916.3  25883.78  26908.54  103.96
917.3  25847.25  26851.77  103.89
918.4  25819.06  26728.37  103.52
919.4  25792.96  26621.64  103.21
920.5  25804.34  26523.65  102.79
921.5  25824.68  26462.65  102.47
922.6  25820.42  26348.46  102.05
923.6  25802.74  26277.04  101.84
924.7  25837.63  26203.13  101.41
925.7  25830.51  26085.36  100.99
926.7  25889.20  26005.85  100.45
927.8  25949.67  25898.69  99.80
928.8  26061.51  25867.18  99.25
929.9  26114.55  25822.88  98.88
930.9  26214.58  25787.18  98.37
931.9  26363.30  25787.44  97.82
932.9  26568.63  25822.60  97.19
934.0  26604.58  25737.10  96.74
935.0  26610.78  25616.33  96.26
936.0  26639.41  25446.61  95.52
937.0  26632.91  25300.67  95.00
938.1  26589.57  25162.54  94.63
939.1  26594.73  25034.86  94.13
940.1  26647.30  24950.53  93.63
941.1  26757.94  24939.63  93.20
942.1  26950.86  24942.09  92.55
943.1  27064.46  24885.18  91.95
944.1  27200.04  24851.84  91.37
945.2  27250.86  24739.74  90.79
946.2  27341.46  24642.27  90.13
947.2  27385.31  24509.69  89.50
948.2  27528.14  24445.13  88.80
949.2  27562.84  24302.64  88.17
950.2  27601.23  24159.91  87.53
951.2  27696.06  24023.72  86.74
952.2  27776.58  23942.29  86.20
953.2  27874.44  23817.74  85.45
954.2  27994.28  23709.46  84.69
955.2  28013.52  23550.20  84.07
956.2  27975.49  23433.45  83.76
957.2  28074.45  23335.51  83.12
958.2  28163.05  23240.91  82.52
959.2  28188.45  23178.47  82.23
960.1  28244.69  23140.39  81.93
961.1  28322.00  23116.00  81.62
962.1  28304.06  23049.97  81.44
963.1  28357.97  23050.01  81.28
964.1  28464.51  23069.20  81.05
965.1  28543.56  23098.29  80.92
966.1  28584.14  23076.50  80.73
967.0  28655.80  23113.45  80.66
968.0  28697.14  23113.62  80.54
969.0  28718.80  23136.97  80.56
970.0  28760.47  23177.60  80.59
971.0  28834.42  23194.37  80.44
971.9  28848.78  23244.34  80.57
972.9  28890.31  23264.70  80.53
973.9  28948.56  23323.17  80.57
974.9  29046.70  23427.68  80.66
975.8  29063.68  23475.17  80.77
976.8  29052.58  23518.04  80.95
977.8  29165.54  23632.96  81.03
978.8  29197.88  23740.80  81.31
979.7  29189.32  23826.95  81.63
981.4  29653.05  20852.79  70.32
985.3  29580.67  21167.14  71.56
989.3  29694.74  21589.01  72.70
993.3  29811.28  22004.73  73.81
997.2  29873.76  22283.29  74.59
1001.2  29847.48  22502.74  75.39
1005.2  29766.32  22718.72  76.32
1009.1  29802.16  23017.00  77.23
1013.1  29912.80  23393.04  78.20
1017.1  29980.27  23790.74  79.35
1021.0  29997.45  24115.71  80.39
1025.0  29986.05  24397.23  81.36
1029.0  29874.56  24602.15  82.35
1032.9  29757.39  24812.93  83.38
1036.9  29719.10  25079.14  84.39
1040.9  29786.91  25396.56  85.26
1044.8  29914.06  25762.38  86.12
1048.8  30017.23  26089.27  86.91
1052.7  30081.05  26356.09  87.62
1056.7  30106.96  26547.30  88.18
1060.7  30124.55  26684.20  88.58
1064.6  30126.20  26787.57  88.92
1068.6  30068.46  26793.25  89.11
1072.5  30024.99  26757.54  89.12
1076.5  29992.38  26723.92  89.10
1080.4  29983.51  26651.05  88.89
1084.4  30049.89  26594.02  88.50
1088.3  30134.74  26527.94  88.03
1092.3  30115.74  26362.60  87.54
1096.2  30104.84  26153.27  86.87
1100.2  30142.18  25951.40  86.10
1104.1  30082.71  25665.29  85.32
1108.1  30052.27  25408.01  84.55
1112.0  29977.43  25119.36  83.79
1116.0  29868.35  24744.25  82.84
1119.9  29779.89  24331.30  81.70
1123.9  29822.35  23950.36  80.31
1127.8  29798.40  23370.24  78.43
1131.8  29786.58  22604.73  75.89
1135.7  29821.64  21707.45  72.79
1139.6  29831.38  20717.81  69.45
1143.6  29819.95  19763.16  66.27
1147.5  29803.64  18943.58  63.56
1151.4  29713.98  18239.56  61.38
1155.4  29731.43  17797.01  59.86
1159.3  29760.66  17519.46  58.87
1163.2  29674.15  17271.37  58.20
1167.2  29672.28  17135.96  57.75
1171.1  29681.80  17049.68  57.44
1175.0  29651.52  16956.65  57.19
1179.0  29638.87  16885.26  56.97
1182.9  29697.98  16858.68  56.77
1186.8  29706.14  16796.54  56.54
1190.7  29571.10  16657.74  56.33
1194.7  29411.94  16518.07  56.16
1198.6  29289.65  16421.79  56.07
1202.5  29196.66  16371.96  56.07
1206.4  29112.98  16353.42  56.17
1210.3  29056.59  16357.13  56.29
1214.2  29008.58  16386.44  56.49
1218.2  28915.95  16420.13  56.79
1222.1  28833.10  16469.98  57.12
1226.0  28785.60  16541.85  57.47
1229.9  28734.48  16612.32  57.81
1233.8  28673.70  16667.36  58.13
1237.7  28644.25  16730.23  58.41
1241.6  28596.57  16780.68  58.68
1245.5  28494.07  16784.68  58.91
1249.4  28422.55  16794.97  59.09
1253.3  28356.92  16809.49  59.28
1257.2  28323.43  16826.11  59.41
1261.1  28264.79  16808.80  59.47
1265.0  28184.91  16768.80  59.50
1268.9  28067.43  16694.71  59.48
1272.8  28106.70  16684.85  59.36
1276.7  28238.01  16701.28  59.14
1280.6  28297.17  16661.15  58.88
1284.5  28250.81  16539.50  58.55
1288.4  28234.52  16421.22  58.16
1292.3  28165.50  16228.67  57.62
1296.2  28076.33  15995.41  56.97
1300.1  27971.71  15738.60  56.27
1303.9  27830.79  15421.91  55.41
1307.8  27679.51  15073.53  54.46
1311.7  27513.83  14699.61  53.43
1315.6  27356.90  14311.46  52.31
1319.5  27190.78  13896.55  51.11
1323.3  27036.43  13474.13  49.84
1327.2  26898.46  13059.54  48.55
1331.1  26745.75  12643.28  47.27
1335.0  26551.82  12215.32  46.01
1338.8  26417.20  11827.33  44.77
1342.7  26306.22  11474.77  43.62
1346.5  26068.84  11078.52  42.50
1350.4  25867.11  10718.52  41.44
1354.3  25587.95  10359.95  40.49
1358.1  25293.52  10001.12  39.54
1362.0  25095.25  9694.29  38.63
1365.8  25024.00  9436.41  37.71
1369.7  25106.98  9193.22  36.62
1373.5  25078.13  8833.42  35.22
1377.4  24917.97  8357.13  33.54
1381.2  24782.40  7814.46  31.53
1385.1  24754.66  7263.71  29.34
1389.0  24692.16  6692.82  27.11
1392.8  24567.88  6132.29  24.96
1396.6  24460.52  5640.49  23.06
1400.5  24320.99  5207.68  21.41
1404.3  24225.89  4859.74  20.06
1408.2  24204.64  4599.96  19.00
1412.0  24174.50  4397.12  18.19
1415.8  24201.79  4248.86  17.56
1419.6  24176.54  4128.05  17.07
1423.5  24162.30  4038.04  16.71
1427.3  24156.22  3966.03  16.42
1431.1  24149.78  3915.30  16.21
1434.9  24082.82  3878.14  16.10
1438.8  24045.91  3850.62  16.01
1442.6  24021.66  3831.28  15.95
1446.4  23948.95  3807.86  15.90
1450.2  23899.20  3798.60  15.89
1454.0  23823.72  3787.08  15.90
1457.8  23805.13  3783.79  15.89
1461.6  23794.65  3799.55  15.97
1465.4  23719.51  3814.73  16.08
1469.2  23598.58  3828.07  16.22
1473.0  23505.47  3858.00  16.41
1476.8  23479.35  3918.16  16.69
1480.7  23444.07  3976.86  16.96
1484.4  23358.60  4040.92  17.30
1488.2  23294.76  4126.04  17.71
1492.0  23212.99  4213.72  18.15
1495.8  23134.48  4301.27  18.59
1499.6  23068.04  4366.56  18.93
1503.4  22989.82  4422.70  19.24
1507.2  22924.40  4480.30  19.54
1510.9  22832.54  4522.77  19.81
1514.7  22729.47  4559.37  20.06
1518.5  22650.58  4605.98  20.33
1522.3  22564.73  4654.30  20.63
1526.0  22502.83  4712.79  20.94
1529.8  22457.39  4780.30  21.29
1533.6  22379.96  4842.94  21.64
1537.3  22300.49  4908.44  22.01
1541.1  22218.14  4968.60  22.36
1544.8  22130.40  5028.80  22.72
1548.6  22049.49  5084.46  23.06
1552.4  21992.28  5140.15  23.37
1556.1  21940.64  5188.73  23.65
1559.9  21881.16  5222.91  23.87
1563.6  21806.79  5267.75  24.16
1567.3  21732.27  5336.87  24.56
1571.1  21585.13  5387.33  24.96
1574.8  21494.94  5439.97  25.31
1578.6  21441.85  5491.60  25.61
1582.3  21360.05  5534.52  25.91
1586.0  21278.88  5573.10  26.19
1589.8  21182.42  5601.17  26.44
1593.5  21087.16  5625.48  26.68
1597.2  21011.15  5649.55  26.89
1600.9  20910.91  5669.48  27.11
1604.7  20817.19  5695.91  27.36
1608.4  20751.75  5728.69  27.61
1612.1  20653.79  5738.36  27.78
1615.8  20554.46  5753.55  27.99
1619.5  20509.10  5792.03  28.24
1623.2  20415.20  5818.55  28.50
1626.9  20293.94  5828.14  28.72
1630.6  20187.64  5833.01  28.89
1634.3  20108.09  5850.75  29.10
1638.0  20016.12  5858.73  29.27
1641.7  19907.78  5863.28  29.45
1645.4  19793.59  5862.11  29.62
1649.1  19676.58  5851.71  29.74
1652.8  19573.89  5845.80  29.87
1656.4  19468.81  5827.74  29.93
1660.1  19373.12  5812.09  30.00
1663.8  19253.37  5788.49  30.06
1667.5  19154.03  5765.34  30.10
1671.1  19073.44  5744.22  30.12
1674.8  18955.63  5704.96  30.10
1678.5  18920.35  5685.14  30.05
1682.1  18926.99  5666.00  29.94
1685.8  18934.59  5637.79  29.78
1689.5  18875.64  5586.92  29.60
1693.1  18777.51  5533.16  29.47
1696.8  18693.63  5481.50  29.32
1700.4  18605.80  5417.46  29.12
1704.0  18533.22  5356.48  28.90
1707.7  18380.44  5265.54  28.65
1711.3  18186.09  5162.51  28.39
1715.0  18064.01  5079.28  28.12
1718.6  17962.81  5001.25  27.84
1722.2  17869.77  4922.76  27.55
1725.9  17778.98  4850.13  27.28
1729.5  17683.82  4793.57  27.11
1733.1  17615.86  4748.42  26.96
1736.7  17543.89  4706.84  26.83
1740.3  17426.02  4656.68  26.72
1744.0  17375.79  4612.30  26.54
1747.5  17289.32  4547.68  26.30
1751.2  17148.24  4465.84  26.04
1754.8  17043.21  4395.56  25.79
1758.4  16959.78  4329.34  25.53
1762.0  16844.84  4262.77  25.31
1765.5  16763.61  4210.21  25.12
1769.1  16735.20  4182.40  24.99
1772.7  16687.95  4155.24  24.90
1776.3  16608.65  4115.22  24.78
1779.9  16528.93  4076.04  24.66
1783.5  16504.40  4047.36  24.52
1787.0  16420.93  4011.73  24.43
1790.6  16313.97  3977.43  24.38
1794.2  16250.54  3957.26  24.35
1797.8  16183.76  3937.95  24.33
1801.3  16118.56  3919.96  24.32
1804.9  16020.38  3900.75  24.35
1808.4  15971.30  3888.73  24.35
1812.0  15882.75  3856.21  24.28
1815.5  15784.84  3828.99  24.26
1819.1  15650.89  3799.75  24.28
1822.6  15532.45  3772.96  24.29
1826.2  15446.30  3740.46  24.22
1829.7  15337.22  3697.47  24.11
1833.2  15178.78  3649.86  24.05
1836.8  15030.02  3603.30  23.97
1840.3  14950.04  3558.75  23.80
1843.8  14886.20  3505.46  23.55
1847.3  14837.06  3454.03  23.28
1850.8  14793.41  3388.22  22.90
1854.3  14722.56  3298.94  22.41
1857.8  14658.80  3204.93  21.86
1861.3  14629.20  3117.57  21.31
1864.8  14572.84  3010.07  20.66
1868.3  14425.58  2857.21  19.81
1871.8  14284.80  2708.48  18.96
1875.3  14255.61  2562.87  17.98
1878.8  14246.03  2405.27  16.88
1882.3  14193.40  2245.46  15.82
1885.8  14118.50  2104.12  14.90
1889.3  13979.52  1996.28  14.28
1892.7  13865.36  1906.56  13.75
1896.2  13804.86  1832.93  13.28
1899.7  13707.11  1791.21  13.07
1901.7  12697.20  1173.71  9.24
1904.5  12812.38  1146.17  8.95
1907.2  12777.50  1125.75  8.81
1910.0  12693.31  1131.27  8.91
1912.7  12674.55  1138.28  8.98
1915.5  12622.22  1155.34  9.15
1918.2  12592.16  1152.22  9.15
1921.0  12470.84  1144.97  9.18
1923.7  12502.92  1152.80  9.22
1926.5  12525.14  1150.69  9.19
1929.2  12499.59  1153.33  9.23
1932.0  12466.20  1157.61  9.29
1934.7  12450.39  1152.70  9.26
1937.4  12388.06  1140.38  9.21
1940.2  12333.29  1141.23  9.25
1942.9  12377.93  1154.06  9.32
1945.6  12406.16  1167.73  9.41
1948.3  12364.25  1182.28  9.56
1951.1  12353.04  1184.94  9.59
1953.8  12345.00  1173.00  9.50
1956.5  12249.55  1179.03  9.63
1959.2  12291.89  1181.05  9.61
1961.9  12307.40  1189.02  9.66
1964.6  12224.28  1206.86  9.87
1967.3  12284.97  1210.40  9.85
1970.0  12156.72  1203.73  9.90
1972.8  12093.19  1206.09  9.97
1975.5  12180.79  1216.52  9.99
1978.2  12109.24  1210.83  10.00
1980.9  12027.29  1213.61  10.09
1983.5  11996.88  1233.13  10.28
1986.2  11983.38  1240.63  10.35
1988.9  11983.38  1249.36  10.43
1991.6  11899.51  1250.39  10.51
1994.3  11798.84  1242.95  10.53
1997.0  11807.25  1253.29  10.61
1999.7  11770.96  1265.45  10.75
2002.3  11768.44  1271.48  10.80
2005.0  11742.55  1284.91  10.94
2007.7  11687.40  1287.13  11.01
2010.4  11651.26  1283.80  11.02
2013.0  11630.36  1297.32  11.15
2015.7  11528.64  1297.70  11.26
2018.4  11457.30  1288.79  11.25
2021.0  11452.33  1308.05  11.42
2023.7  11380.16  1312.52  11.53
2026.4  11323.00  1305.05  11.53
2029.0  11263.54  1316.80  11.69
2031.7  11193.43  1325.71  11.84
2034.3  11193.43  1325.71  11.84
2037.0  11130.51  1314.61  11.81
2039.6  11076.09  1314.76  11.87
2042.3  11047.98  1326.47  12.01
2044.9  11026.46  1332.38  12.08
2047.5  11001.21  1337.05  12.15
2050.2  10900.40  1327.20  12.18
2052.8  10894.80  1330.93  12.22
2055.4  10822.84  1328.92  12.28
2058.1  10738.00  1324.40  12.33
2060.7  10718.83  1338.81  12.49
2063.3  10653.43  1348.74  12.66
2065.9  10619.50  1345.58  12.67
2068.6  10577.63  1344.65  12.71
2071.2  10537.83  1352.22  12.83
2073.8  10490.95  1353.46  12.90
2076.4  10463.25  1359.36  12.99
2079.0  10439.15  1361.91  13.05
2081.6  10423.40  1363.53  13.08
2084.2  10414.77  1370.39  13.16
2086.8  10346.04  1371.74  13.26
2089.4  10282.92  1368.22  13.31
2092.1  10234.00  1366.61  13.35
2094.7  10195.43  1369.19  13.43
2097.2  10197.17  1362.83  13.36
2099.8  10202.45  1373.04  13.46
2102.4  10082.46  1374.28  13.63
2105.0  9986.40  1367.05  13.69
2107.6  9963.47  1371.95  13.77
2110.2  9945.83  1381.05  13.89
2112.8  9950.08  1382.03  13.89
2115.3  9950.34  1389.45  13.96
2117.9  9955.62  1395.70  14.02
2120.5  9928.49  1396.29  14.06
2123.1  9866.03  1406.93  14.26
2125.6  9842.13  1408.53  14.31
2128.2  9772.14  1406.75  14.40
2130.8  9719.78  1393.28  14.33
2133.3  9694.67  1391.38  14.35
2135.9  9628.08  1400.23  14.54
2138.4  9561.93  1397.70  14.62
2141.0  9493.76  1391.79  14.66
2143.6  9481.01  1388.63  14.65
2146.1  9385.04  1383.96  14.75
2148.7  9294.55  1366.53  14.70
2151.2  9319.20  1371.82  14.72
2153.8  9286.22  1388.27  14.95
2156.3  9196.68  1383.14  15.04
2158.8  9176.01  1381.17  15.05
2161.4  9166.37  1384.74  15.11
2163.9  9107.40  1369.99  15.04
2166.4  9056.27  1364.01  15.06
2169.0  9041.49  1373.86  15.20
2171.5  8982.35  1369.92  15.25
2174.0  8919.05  1365.53  15.31
2176.5  8910.20  1361.45  15.28
2179.1  8872.37  1367.30  15.41
2181.6  8820.83  1360.64  15.43
2184.1  8802.64  1341.85  15.24
2186.6  8815.58  1356.81  15.39
2189.1  8766.51  1361.04  15.53
2191.6  8725.27  1354.58  15.52
2194.1  8759.24  1357.45  15.50
2196.6  8743.02  1364.33  15.60
2199.2  8762.69  1375.57  15.70
2201.7  8728.52  1368.20  15.68
2204.1  8693.38  1353.61  15.57
2206.6  8724.47  1358.96  15.58
2209.1  8690.36  1355.03  15.59
2211.6  8648.75  1345.02  15.55
2214.1  8641.19  1348.33  15.60
2216.6  8629.81  1339.55  15.52
2219.1  8603.23  1329.42  15.45
2221.6  8565.00  1324.72  15.47
2224.0  8580.12  1320.80  15.39
2226.5  8553.64  1314.00  15.36
2229.0  8526.93  1306.96  15.33
2231.5  8456.64  1291.99  15.28
2233.9  8447.09  1284.06  15.20
2236.4  8434.10  1293.10  15.33
2238.9  8377.75  1286.50  15.36
2241.3  8418.52  1259.28  14.96
2243.8  8391.31  1252.80  14.93
2246.2  8272.81  1235.36  14.93
2248.7  8260.98  1213.56  14.69
2251.2  8270.85  1204.24  14.56
2253.6  8217.60  1194.24  14.53
2256.1  8198.40  1173.76  14.32
2258.5  8205.80  1170.43  14.26
2260.9  8176.22  1185.02  14.49
2263.4  8125.75  1159.18  14.27
2265.8  8124.16  1146.31  14.11
2268.3  8073.80  1133.97  14.05
2270.7  8110.40  1116.96  13.77
2273.1  8107.19  1121.10  13.83
2275.6  8037.12  1090.56  13.57
2278.0  8047.94  1072.29  13.32
2280.4  8050.71  1099.34  13.66
2282.8  7936.92  1094.39  13.79
2285.3  7936.09  1074.47  13.54
2287.7  8013.06  1073.88  13.40
2290.1  7946.20  1058.18  13.32
2292.5  7908.89  1019.86  12.90
2294.9  7966.56  1015.58  12.75
2297.3  7878.36  1011.16  12.83
2299.7  7782.17  998.93  12.84
2302.1  7817.38  983.39  12.58
2304.5  7722.40  963.01  12.47
2306.9  7647.92  959.09  12.54
2309.3  7632.91  961.30  12.59
2311.7  7536.00  945.93  12.55
2314.1  7439.51  908.44  12.21
2316.5  7426.90  911.45  12.27
2318.9  7433.98  910.52  12.25
2321.3  7420.20  924.39  12.46
2323.7  7439.58  938.43  12.61
2326.1  7403.11  928.24  12.54
2328.4  7412.50  927.58  12.51
2330.8  7505.15  925.70  12.33
2333.2  7417.12  903.29  12.18
2335.6  7356.75  896.76  12.19
2337.9  7411.84  886.14  11.96
2340.3  7376.47  894.25  12.12
2342.7  7282.70  904.17  12.42
2345.0  7270.29  881.89  12.13
2347.4  7284.50  857.08  11.77
2349.7  7133.68  837.25  11.74
2352.1  7080.04  839.08  11.85
2354.4  7143.83  839.61  11.75
2356.8  7126.82  835.99  11.73
2359.2  7067.67  845.00  11.96
2361.5  7038.06  831.94  11.82
2363.8  7031.06  800.75  11.39
2366.2  7039.27  809.11  11.49
2368.5  7035.45  812.87  11.55
2370.9  7023.13  796.25  11.34
2373.2  6987.82  815.39  11.67
2375.5  6900.63  812.99  11.78
2377.9  6892.20  784.04  11.38
2380.2  6890.83  783.47  11.37
2382.5  6864.93  782.68  11.40
2384.8  6830.08  773.33  11.32
2387.2  6784.02  762.64  11.24
2389.5  6780.31  746.02  11.00
2391.8  6787.76  752.61  11.09
2394.1  6727.26  756.54  11.25
2396.4  6676.90  746.72  11.18
2398.7  6732.64  737.25  10.95
2401.0  6690.59  723.62  10.82
2403.3  6603.48  728.74  11.04
2405.6  6572.81  738.09  11.23
2407.9  6583.14  744.82  11.31
2410.2  6542.40  736.96  11.26
2412.5  6479.13  731.76  11.29
2414.8  6475.24  727.46  11.23
2417.1  6452.08  700.27  10.85
2419.4  6434.35  684.25  10.63
2421.7  6386.85  697.38  10.92
2424.0  6345.28  702.68  11.07
2426.2  6355.80  670.53  10.55
2428.5  6327.75  658.01  10.40
2430.8  6349.25  655.82  10.33
2433.1  6300.57  639.83  10.16
2435.4  6204.86  650.89  10.49
2437.6  6227.24  650.89  10.45
2439.9  6165.27  638.24  10.35
2442.2  6149.09  621.93  10.11
2444.4  6162.60  645.17  10.47
2446.7  6079.44  634.61  10.44
2448.9  6081.55  613.88  10.09
2451.2  6103.04  633.75  10.38
2453.4  6038.72  610.70  10.11
2455.7  6026.93  610.20  10.12
2457.9  5958.48  596.26  10.01
2460.2  5949.23  571.29  9.60
2462.4  5977.92  619.84  10.37
2464.7  5891.98  609.81  10.35
2466.9  5829.36  582.08  9.99
2469.2  5872.39  591.99  10.08
2471.4  5796.90  564.59  9.74
2473.6  5737.62  551.23  9.61
2475.9  5730.24  562.19  9.81
2478.1  5663.45  573.86  10.13
2480.3  5645.91  580.14  10.28
2482.5  5682.93  567.10  9.98
2484.8  5614.17  555.83  9.90
2487.0  5547.59  535.75  9.66
2489.2  5555.75  550.30  9.91
2491.4  5471.72  548.20  10.02
2493.6  5479.00  496.43  9.06
2495.8  5550.75  535.81  9.65
2498.0  5512.53  553.96  10.05
2500.2  5509.95  533.58  9.68
2502.4  5736.48  574.24  10.01
2504.6  5803.02  569.66  9.82
2506.8  5806.03  558.52  9.62
