/*** Spectra Vista SIG Data ***/
name= S1.sig
comm= Resampled spectral data SIG file reprocesed for matching/overlap;Averaged Ref/Tar of files: RD3S1,RD3S2,RD3S3
data=
346.0  598.78  225.08  37.59
356.0  924.17  278.41  30.13
366.0  1234.61  320.02  25.92
376.0  1691.57  365.72  21.62
386.0  2110.32  398.24  18.87
396.0  2699.64  489.09  18.12
406.0  3258.06  507.90  15.59
416.0  3980.12  606.54  15.24
426.0  4560.62  657.00  14.41
436.0  5560.57  743.47  13.37
446.0  6459.13  838.61  12.98
456.0  7345.42  924.18  12.58
466.0  8824.96  1084.01  12.28
476.0  10121.58  1252.04  12.37
486.0  10943.49  1260.38  11.52
496.0  12761.25  1431.43  11.22
506.0  14311.81  1599.74  11.18
516.0  15112.04  1693.97  11.21
526.0  16957.18  1864.21  10.99
536.0  19355.60  2118.60  10.95
546.0  21330.59  2380.17  11.16
556.0  21581.55  2475.82  11.47
566.0  23226.44  2875.68  12.38
576.0  25810.52  3679.03  14.25
586.0  27755.51  4847.70  17.47
596.0  29194.08  6428.83  22.02
606.0  29534.45  8126.86  27.52
616.0  31318.23  10446.53  33.36
626.0  34410.58  13861.35  40.28
636.0  34069.21  15607.14  45.81
646.0  34679.65  15821.86  45.62
656.0  34069.42  15467.86  45.40
666.0  35802.93  14319.50  40.00
676.0  37841.78  13975.56  36.93
686.0  40854.13  19214.54  47.03
696.0  41747.28  30128.34  72.17
706.0  41971.06  36866.04  87.84
716.0  41223.34  39264.51  95.25
726.0  40067.78  39595.89  98.82
736.0  39511.29  39484.64  99.93
746.0  41985.01  42376.36  100.93
756.0  42844.63  43495.05  101.52
766.0  44461.06  45551.62  102.45
776.0  45318.27  46750.61  103.16
786.0  45304.05  47106.24  103.98
796.0  44083.17  46029.68  104.42
806.0  42558.06  44699.76  105.03
816.0  42205.19  44378.47  105.15
826.0  41881.04  43683.79  104.30
836.0  42513.48  43647.81  102.67
846.0  43677.73  44660.15  102.25
856.0  44639.93  45380.83  101.66
866.0  45173.91  45693.12  101.15
876.0  45452.84  45584.72  100.29
886.0  45709.40  45152.27  98.78
896.0  45235.90  44012.23  97.29
906.0  45023.00  43155.38  95.85
916.0  44495.20  41886.03  94.14
926.0  44269.25  40341.37  91.13
936.0  45413.73  39281.97  86.50
946.0  46396.61  37867.35  81.62
956.0  47429.46  35907.59  75.71
966.0  48326.20  35249.41  72.94
976.0  49108.57  35664.14  72.62
986.0  50490.65  33745.43  66.84
996.0  50607.35  34507.88  68.19
1006.0  50486.13  35255.29  69.83
1016.0  50803.76  36633.53  72.11
1026.0  50772.47  37785.06  74.42
1036.0  50488.61  38727.50  76.71
1046.0  50910.83  40092.78  78.75
1056.0  51254.42  41131.26  80.25
1066.0  51336.62  41581.20  81.00
1076.0  51162.22  41476.50  81.07
1086.0  51303.09  41199.46  80.31
1096.0  51344.30  40479.39  78.84
1106.0  51211.90  39500.24  77.13
1116.0  50831.30  38218.64  75.19
1126.0  50674.44  36422.54  71.88
1136.0  50616.91  33263.57  65.72
1146.0  50531.75  29586.64  58.55
1156.0  50358.44  27273.54  54.16
1166.0  50175.54  26341.41  52.50
1176.0  50092.24  25904.27  51.71
1186.0  50160.75  25630.40  51.10
1196.0  49589.85  25125.27  50.67
1206.0  49136.73  24922.81  50.72
1216.0  48856.16  25001.57  51.17
1226.0  48538.40  25213.34  51.95
1236.0  48332.55  25436.10  52.63
1246.0  48044.92  25554.90  53.19
1256.0  47756.51  25581.69  53.57
1266.0  47442.71  25478.65  53.70
1276.0  47551.66  25397.18  53.41
1286.0  47606.03  25069.77  52.66
1296.0  47326.24  24332.44  51.41
1306.0  46758.50  23143.61  49.50
1316.0  46095.57  21684.81  47.04
1326.0  45453.96  20051.73  44.11
1336.0  44765.54  18422.61  41.15
1346.0  44091.89  16936.67  38.41
1356.0  43065.01  15538.23  36.08
1366.0  42453.65  14411.48  33.95
1376.0  42338.17  12972.52  30.64
1386.0  41985.88  10863.31  25.87
1396.0  41548.36  8676.16  20.88
1406.0  41106.41  7166.60  17.43
1416.0  41061.27  6354.09  15.47
1426.0  40954.01  5940.99  14.51
1436.0  40796.14  5744.15  14.08
1446.0  40594.32  5651.18  13.92
1456.0  40330.62  5602.88  13.89
1466.0  40125.74  5645.66  14.07
1476.0  39754.25  5786.07  14.55
1486.0  39484.92  6068.92  15.37
1496.0  39151.21  6418.66  16.39
1506.0  38800.67  6639.14  17.11
1516.0  38385.61  6808.50  17.74
1526.0  38038.86  7006.49  18.42
1536.0  37757.73  7210.02  19.10
1546.0  37407.06  7492.40  20.03
1556.0  37137.95  7750.75  20.87
1566.0  36823.70  7952.95  21.60
1576.0  36372.01  8193.02  22.53
1586.0  36009.48  8350.86  23.19
1596.0  35619.37  8460.79  23.75
1606.0  35232.08  8570.99  24.33
1616.0  34829.65  8665.09  24.88
1626.0  34452.68  8751.60  25.40
1636.0  34007.58  8804.62  25.89
1646.0  33523.68  8813.41  26.29
1656.0  33037.62  8773.56  26.56
1666.0  32548.04  8684.94  26.68
1676.0  32123.29  8558.19  26.64
1686.0  32117.51  8468.65  26.37
1696.0  31764.57  8261.06  26.01
1706.0  31316.98  7973.58  25.46
1716.0  30611.05  7593.97  24.81
1726.0  30177.81  7291.92  24.16
1736.0  29812.17  7094.51  23.80
1746.0  29439.81  6884.89  23.39
1756.0  28928.41  6580.10  22.75
1766.0  28491.94  6344.80  22.27
1776.0  28263.25  6208.09  21.97
1786.0  27973.79  6070.86  21.70
1796.0  27612.53  5962.01  21.59
1806.0  27286.01  5894.62  21.60
1816.0  26879.26  5795.61  21.56
1826.0  26408.56  5681.58  21.51
1836.0  25765.82  5493.94  21.32
1846.0  25402.19  5288.66  20.82
1856.0  25067.72  5016.03  20.01
1866.0  24868.79  4634.68  18.64
1876.0  24488.38  3998.90  16.33
1886.0  24233.30  3311.22  13.66
1896.0  23683.96  2853.57  12.05
1906.0  22096.75  1547.68  7.00
1916.0  21802.32  1526.59  7.00
1926.0  21588.87  1522.93  7.05
1936.0  21449.43  1507.16  7.03
1946.0  21420.23  1524.70  7.12
1956.0  21201.75  1532.11  7.23
1966.0  21198.12  1576.35  7.44
1976.0  21006.67  1615.13  7.69
1986.0  20732.55  1631.22  7.87
1996.0  20450.49  1663.31  8.13
2006.0  20269.19  1702.98  8.40
2016.0  19957.87  1739.08  8.71
2026.0  19629.85  1755.91  8.95
2036.0  19319.95  1776.52  9.20
2046.0  19073.35  1796.64  9.42
2056.0  18736.02  1808.08  9.65
2066.0  18425.00  1821.48  9.89
2076.0  18163.31  1834.07  10.10
2086.0  17998.96  1861.21  10.34
2096.0  17698.67  1864.99  10.54
2106.0  17393.37  1887.88  10.85
2116.0  17301.34  1919.58  11.09
2126.0  17117.10  1950.25  11.39
2136.0  16805.93  1942.81  11.56
2146.0  16338.81  1922.71  11.77
2156.0  16108.43  1935.69  12.02
2166.0  15818.08  1926.05  12.18
2176.0  15571.16  1917.25  12.31
2186.0  15407.91  1929.63  12.52
2196.0  15291.27  1920.18  12.56
2206.0  15252.10  1920.50  12.59
2216.0  15137.72  1926.77  12.73
2226.0  14957.58  1880.42  12.57
2236.0  14828.49  1825.20  12.31
2246.0  14572.63  1771.91  12.16
2256.0  14413.52  1715.71  11.90
2266.0  14283.01  1632.94  11.43
2276.0  14142.85  1568.87  11.09
2286.0  14066.30  1520.72  10.81
2296.0  13956.39  1461.80  10.47
2306.0  13536.25  1357.95  10.03
2316.0  13130.37  1312.67  10.00
2326.0  13082.91  1322.45  10.11
2336.0  13030.52  1274.40  9.78
2346.0  12874.44  1232.29  9.57
2356.0  12605.38  1186.83  9.42
2366.0  12490.11  1174.20  9.40
2376.0  12262.88  1133.72  9.25
2386.0  12077.58  1097.60  9.09
2396.0  11871.57  1070.24  9.02
2406.0  11728.43  1025.14  8.74
2416.0  11508.86  1000.37  8.69
2426.0  11344.58  947.46  8.35
2436.0  11091.32  921.31  8.31
2446.0  10929.32  900.28  8.24
2456.0  10711.77  865.69  8.08
2466.0  10484.26  835.59  7.97
2476.0  10216.57  788.58  7.72
2486.0  9941.47  774.33  7.79
2496.0  9864.73  771.40  7.82
2506.0  10308.86  769.94  7.47
