/*** Spectra Vista SIG Data ***/
name= GS.sig
comm= Resampled spectral data SIG file reprocesed for matching/overlap;Averaged Ref/Tar of files: GD2S1,GD2S2,GD2S3
data=
346.0  509.60  201.72  39.58
356.0  828.71  230.92  27.86
366.0  1135.02  260.42  22.94
376.0  1579.37  285.09  18.05
386.0  1995.77  303.19  15.19
396.0  2559.82  401.15  15.67
406.0  3091.33  427.23  13.82
416.0  3756.05  535.50  14.26
426.0  4330.84  596.47  13.77
436.0  5235.06  698.48  13.34
446.0  6088.18  901.86  14.81
456.0  6942.22  1169.96  16.85
466.0  8223.74  1477.46  17.97
476.0  9370.48  1769.92  18.89
486.0  10269.91  2036.69  19.83
496.0  11746.45  2766.97  23.56
506.0  13053.58  4018.52  30.78
516.0  13946.28  5583.98  40.04
526.0  15576.79  7620.49  48.92
536.0  17486.02  9601.49  54.91
546.0  19041.40  11102.87  58.31
556.0  19524.52  11516.25  58.98
566.0  20999.31  12214.24  58.16
576.0  23067.50  12864.49  55.77
586.0  24676.47  13178.61  53.41
596.0  26082.33  13451.81  51.57
606.0  26687.61  13251.24  49.65
616.0  28173.19  13230.26  46.96
626.0  30688.38  13896.28  45.28
636.0  30262.72  13402.45  44.29
646.0  30879.36  12316.61  39.89
656.0  30774.24  10536.50  34.24
666.0  32506.69  8627.31  26.54
676.0  34219.05  8002.27  23.39
686.0  36429.62  11549.54  31.70
696.0  37023.78  21319.21  57.58
706.0  37160.43  28967.99  77.95
716.0  36697.84  32317.39  88.06
726.0  35913.80  33287.30  92.69
736.0  35729.66  33476.40  93.69
746.0  37736.85  36026.66  95.47
756.0  38321.00  36842.59  96.14
766.0  39510.69  38638.83  97.79
776.0  40059.59  39645.91  98.97
786.0  40131.74  40043.52  99.78
796.0  39280.82  39119.52  99.59
806.0  38244.14  38165.18  99.79
816.0  38036.29  38110.32  100.19
826.0  37709.30  37692.65  99.96
836.0  38038.49  37878.46  99.58
846.0  38692.27  38922.88  100.60
856.0  39178.52  39581.62  101.03
866.0  39402.80  39843.11  101.12
876.0  39579.78  39795.66  100.55
886.0  39738.64  39525.12  99.46
896.0  39527.49  38667.87  97.83
906.0  39437.50  38102.62  96.62
916.0  39115.31  37167.78  95.02
926.0  39024.38  35999.82  92.25
936.0  39929.50  35292.18  88.39
946.0  40662.60  34281.06  84.31
956.0  41393.84  32765.75  79.16
966.0  41958.59  32408.61  77.24
976.0  42665.70  32829.16  76.95
986.0  43514.08  31957.38  73.44
996.0  44198.08  32828.92  74.28
1006.0  44152.39  33547.42  75.98
1016.0  44379.04  34816.07  78.45
1026.0  44401.68  35871.59  80.79
1036.0  44210.66  36691.04  82.99
1046.0  44505.96  37931.57  85.23
1056.0  44664.21  38884.64  87.06
1066.0  44609.35  39316.57  88.14
1076.0  44397.60  39252.79  88.41
1086.0  44469.15  39083.10  87.89
1096.0  44486.78  38548.66  86.65
1106.0  44367.02  37778.30  85.15
1116.0  44078.91  36715.90  83.30
1126.0  43954.95  35220.17  80.13
1136.0  43902.29  32505.50  74.04
1146.0  43783.94  29305.39  66.93
1156.0  43564.50  27332.54  62.74
1166.0  43347.15  26582.66  61.33
1176.0  43236.47  26280.06  60.78
1186.0  43266.58  26095.08  60.31
1196.0  42749.21  25637.72  59.97
1206.0  42347.95  25445.40  60.09
1216.0  42062.65  25499.35  60.62
1226.0  41760.57  25648.85  61.42
1236.0  41549.33  25819.92  62.14
1246.0  41291.98  25902.78  62.73
1256.0  41002.94  25921.13  63.22
1266.0  40714.26  25811.02  63.40
1276.0  40752.77  25745.80  63.18
1286.0  40729.17  25432.40  62.44
1296.0  40419.20  24734.02  61.19
1306.0  39889.01  23615.06  59.20
1316.0  39301.71  22230.00  56.56
1326.0  38739.73  20694.55  53.42
1336.0  38152.03  19133.08  50.15
1346.0  37634.91  17733.02  47.12
1356.0  36932.28  16375.07  44.34
1366.0  36373.67  15203.95  41.80
1376.0  36238.22  13778.75  38.02
1386.0  35907.93  11542.15  32.14
1396.0  35482.45  9265.55  26.11
1406.0  35048.23  7647.02  21.82
1416.0  34958.68  6787.58  19.42
1426.0  34812.11  6366.25  18.29
1436.0  34651.53  6160.28  17.78
1446.0  34455.26  6060.00  17.59
1456.0  34203.50  6027.30  17.62
1466.0  34017.99  6104.91  17.95
1476.0  33677.47  6291.83  18.68
1486.0  33445.44  6624.12  19.81
1496.0  33136.51  7027.42  21.21
1506.0  32878.23  7307.46  22.23
1516.0  32532.33  7463.37  22.94
1526.0  32200.64  7756.50  24.09
1536.0  31935.91  8168.61  25.58
1546.0  31612.44  8495.32  26.87
1556.0  31368.42  8772.25  27.97
1566.0  31082.67  9027.87  29.04
1576.0  30694.72  9277.15  30.22
1586.0  30400.45  9463.40  31.13
1596.0  30038.76  9591.10  31.93
1606.0  29713.74  9702.95  32.65
1616.0  29361.62  9801.08  33.38
1626.0  29041.80  9885.36  34.04
1636.0  28665.08  9924.00  34.62
1646.0  28273.39  9878.18  34.94
1656.0  27876.35  9781.09  35.09
1666.0  27464.92  9673.34  35.22
1676.0  27087.15  9536.55  35.21
1686.0  27082.21  9448.83  34.89
1696.0  26749.12  9219.52  34.47
1706.0  26324.28  8908.23  33.84
1716.0  25713.57  8502.72  33.07
1726.0  25342.79  8178.81  32.27
1736.0  25046.96  7949.95  31.74
1746.0  24724.28  7702.66  31.15
1756.0  24256.84  7356.97  30.33
1766.0  23870.66  7074.42  29.64
1776.0  23641.10  6925.06  29.29
1786.0  23371.07  6771.66  28.97
1796.0  23059.77  6658.54  28.88
1806.0  22801.89  6581.12  28.86
1816.0  22515.30  6486.96  28.81
1826.0  22114.90  6354.95  28.74
1836.0  21613.42  6154.25  28.47
1846.0  21215.40  6000.74  28.28
1856.0  20774.86  5754.01  27.70
1866.0  20736.29  5067.45  24.44
1876.0  20407.50  4053.04  19.86
1886.0  20155.03  3257.22  16.16
1896.0  19660.33  2748.79  13.98
1906.0  18631.25  1665.79  8.94
1916.0  18318.88  1568.75  8.56
1926.0  18038.46  1525.01  8.45
1936.0  17863.51  1529.07  8.56
1946.0  17797.41  1587.15  8.92
1956.0  17592.99  1633.37  9.28
1966.0  17571.94  1713.18  9.75
1976.0  17404.06  1786.47  10.26
1986.0  17183.68  1852.59  10.78
1996.0  16906.31  1923.40  11.38
2006.0  16756.31  2019.78  12.05
2016.0  16485.40  2076.12  12.59
2026.0  16206.02  2143.38  13.23
2036.0  15962.47  2188.78  13.71
2046.0  15735.40  2242.38  14.25
2056.0  15460.05  2286.90  14.79
2066.0  15198.46  2336.70  15.37
2076.0  14951.14  2368.18  15.84
2086.0  14836.37  2412.41  16.26
2096.0  14558.23  2450.03  16.83
2106.0  14302.47  2476.31  17.31
2116.0  14222.98  2531.43  17.80
2126.0  14069.19  2577.16  18.32
2136.0  13798.40  2572.96  18.65
2146.0  13445.76  2559.13  19.03
2156.0  13239.56  2559.33  19.33
2166.0  12983.56  2533.78  19.52
2176.0  12771.15  2525.01  19.77
2186.0  12627.18  2509.68  19.88
2196.0  12513.18  2497.47  19.96
2206.0  12456.23  2479.72  19.91
2216.0  12351.60  2473.49  20.03
2226.0  12205.08  2400.33  19.67
2236.0  12132.89  2353.05  19.39
2246.0  11882.62  2235.28  18.81
2256.0  11773.90  2140.42  18.18
2266.0  11670.88  2031.72  17.41
2276.0  11528.71  1955.06  16.96
2286.0  11463.55  1882.03  16.42
2296.0  11358.16  1785.41  15.72
2306.0  11039.70  1634.64  14.81
2316.0  10655.77  1562.07  14.66
2326.0  10608.43  1578.25  14.88
2336.0  10592.93  1510.05  14.26
2346.0  10498.36  1440.32  13.72
2356.0  10259.04  1356.85  13.23
2366.0  10158.26  1332.04  13.11
2376.0  9929.58  1257.52  12.66
2386.0  9815.44  1218.11  12.41
2396.0  9663.63  1142.61  11.82
2406.0  9510.88  1099.64  11.56
2416.0  9304.41  1056.19  11.35
2426.0  9217.28  991.19  10.75
2436.0  8983.54  962.51  10.71
2446.0  8817.11  885.36  10.04
2456.0  8689.94  854.46  9.83
2466.0  8452.21  824.42  9.75
2476.0  8254.64  782.93  9.48
2486.0  8114.28  717.23  8.84
2496.0  7981.99  691.32  8.66
2506.0  8320.96  754.00  9.06
