/*** Spectra Vista SIG Data ***/
name= T1.sig
comm= SIG file reprocesed for matching/overlap;Averaged Ref/Tar of files: RD3T4,RD3T5,RD3T6
data=
346.4  598.78  88.33  14.75
347.9  627.50  85.13  13.57
349.5  677.04  88.40  13.06
351.1  739.44  91.10  12.32
352.6  790.63  92.35  11.68
354.2  841.03  98.61  11.72
355.7  912.59  100.80  11.05
357.3  974.37  105.87  10.87
358.8  992.58  104.15  10.49
360.4  1062.29  111.15  10.46
361.9  1117.88  110.28  9.87
363.5  1149.55  105.49  9.18
365.1  1196.29  106.57  8.91
366.6  1260.16  109.10  8.66
368.2  1349.72  107.89  7.99
369.7  1403.95  109.27  7.78
371.3  1488.21  108.87  7.32
372.8  1577.00  108.90  6.91
374.4  1638.71  115.92  7.07
375.9  1688.10  112.76  6.68
377.4  1740.09  114.49  6.58
379.0  1788.57  110.33  6.17
380.5  1855.73  108.94  5.87
382.1  1905.98  104.61  5.49
383.6  1973.16  102.44  5.19
385.2  2065.25  103.03  4.99
386.7  2149.76  103.97  4.84
388.3  2271.83  109.42  4.82
389.8  2363.45  107.97  4.57
391.3  2453.59  109.54  4.46
392.9  2526.36  116.27  4.60
394.4  2602.50  120.88  4.64
395.9  2690.98  127.48  4.74
397.5  2829.48  135.66  4.79
399.0  2963.31  131.63  4.44
400.6  3033.76  127.54  4.20
402.1  3072.78  116.96  3.81
403.6  3116.75  117.96  3.78
405.1  3199.00  111.66  3.49
406.7  3304.00  110.36  3.34
408.2  3412.53  114.35  3.35
409.7  3521.28  116.18  3.30
411.3  3642.17  118.73  3.26
412.8  3732.75  120.24  3.22
414.3  3845.02  127.60  3.32
415.8  3965.00  133.67  3.37
417.4  4085.95  135.10  3.31
418.9  4192.21  136.28  3.25
420.4  4267.16  132.44  3.10
421.9  4346.32  137.30  3.16
423.5  4413.15  132.01  2.99
425.0  4492.75  135.15  3.01
426.5  4594.55  134.16  2.92
428.0  4712.54  130.95  2.78
429.5  4856.53  133.12  2.74
431.1  5025.20  135.96  2.71
432.6  5198.44  137.52  2.65
434.1  5370.75  139.63  2.60
435.6  5520.56  142.42  2.58
437.1  5670.60  144.43  2.55
438.6  5806.58  144.62  2.49
440.1  5943.54  149.09  2.51
441.6  6091.61  154.33  2.53
443.1  6230.93  154.17  2.47
444.7  6356.12  159.88  2.52
446.2  6474.98  162.79  2.51
447.7  6582.53  161.67  2.46
449.2  6691.68  169.63  2.53
450.7  6814.08  168.34  2.47
452.2  6930.56  168.20  2.43
453.7  7066.33  168.50  2.38
455.2  7233.85  168.01  2.32
456.7  7443.04  174.00  2.34
458.2  7673.27  175.10  2.28
459.7  7920.50  179.90  2.27
461.2  8156.07  183.91  2.25
462.7  8366.46  189.86  2.27
464.2  8568.06  193.25  2.26
465.7  8788.58  197.77  2.25
467.2  8970.50  202.77  2.26
468.7  9176.00  209.20  2.28
470.2  9305.26  216.40  2.33
471.7  9490.50  227.21  2.39
473.2  9788.42  232.93  2.38
474.6  10042.30  238.00  2.37
476.1  10127.24  229.24  2.26
477.6  10169.21  225.63  2.22
479.1  10224.56  224.35  2.19
480.6  10293.47  225.53  2.19
482.1  10426.95  222.90  2.14
483.6  10590.11  227.28  2.15
485.1  10796.39  227.13  2.10
486.6  11041.55  230.54  2.09
488.0  11290.50  237.14  2.10
489.5  11568.25  243.54  2.11
491.0  11840.59  245.32  2.07
492.5  12119.22  254.23  2.10
494.0  12409.65  259.75  2.09
495.4  12660.45  267.74  2.11
496.9  12912.44  275.44  2.13
498.4  13155.80  285.02  2.17
499.9  13408.52  293.92  2.19
501.4  13645.90  299.91  2.20
502.8  13864.50  306.53  2.21
504.3  14081.40  317.40  2.25
505.8  14291.05  327.97  2.29
507.2  14436.37  334.89  2.32
508.7  14548.87  345.40  2.37
510.2  14651.50  354.79  2.42
511.6  14718.08  364.81  2.48
513.1  14838.45  373.63  2.52
514.6  14986.45  384.62  2.57
516.0  15112.04  390.13  2.58
517.5  15305.31  404.13  2.64
519.0  15537.89  413.11  2.66
520.5  15768.60  427.27  2.71
521.9  16045.99  441.51  2.75
523.4  16363.11  457.76  2.80
524.8  16675.79  471.38  2.83
526.3  17027.53  490.86  2.88
527.8  17380.80  506.94  2.92
529.2  17706.86  521.91  2.95
530.7  18056.71  541.03  3.00
532.1  18377.28  555.72  3.02
533.6  18738.23  574.83  3.07
535.0  19114.67  590.78  3.09
536.5  19476.07  610.39  3.13
538.0  19846.24  629.16  3.17
539.4  20198.95  644.41  3.19
540.9  20626.19  667.03  3.23
542.3  20984.92  690.68  3.29
543.8  21250.33  708.14  3.33
545.2  21329.19  719.97  3.38
546.6  21331.64  721.14  3.38
548.1  21362.06  731.55  3.42
549.5  21376.46  738.51  3.45
551.0  21386.66  746.64  3.49
552.4  21443.54  759.50  3.54
553.9  21463.89  769.82  3.59
555.3  21521.57  782.73  3.64
556.8  21650.10  796.49  3.68
558.2  21773.81  813.38  3.74
559.6  21936.94  829.44  3.78
561.1  22168.25  848.14  3.83
562.5  22423.78  871.55  3.89
564.0  22757.43  898.59  3.95
565.4  23059.14  923.58  4.01
566.8  23449.52  954.66  4.07
568.3  23818.66  986.59  4.14
569.7  24198.01  1023.14  4.23
571.1  24579.14  1054.89  4.29
572.6  24952.86  1090.04  4.37
574.0  25317.60  1127.17  4.45
575.4  25678.69  1167.98  4.55
576.9  26008.29  1207.90  4.64
578.3  26306.64  1246.25  4.74
579.7  26593.28  1288.98  4.85
581.1  26823.10  1330.20  4.96
582.6  27065.10  1372.33  5.07
584.0  27286.52  1416.44  5.19
585.4  27587.92  1472.57  5.34
586.8  27978.96  1540.40  5.51
588.3  28419.30  1609.61  5.66
589.7  28786.68  1678.56  5.83
591.1  29016.81  1742.01  6.00
592.5  29127.43  1789.94  6.15
594.0  29186.34  1844.67  6.32
595.4  29194.56  1889.77  6.47
596.8  29193.45  1943.65  6.66
598.2  29177.08  1995.50  6.84
599.6  29153.88  2048.61  7.03
601.0  29216.28  2110.36  7.22
602.4  29261.60  2175.53  7.43
603.9  29364.60  2239.51  7.63
605.3  29484.10  2306.52  7.82
606.7  29584.80  2371.92  8.02
608.1  29785.49  2447.19  8.22
609.5  30013.28  2523.43  8.41
610.9  30296.78  2605.41  8.60
612.3  30557.28  2687.76  8.80
613.7  30914.00  2781.66  9.00
615.1  31159.08  2868.05  9.20
616.5  31406.64  2959.30  9.42
617.9  31801.61  3061.95  9.63
619.3  32170.62  3165.38  9.84
620.7  32635.92  3280.60  10.05
622.1  33083.75  3393.39  10.26
623.5  33564.04  3517.88  10.48
624.9  34116.86  3654.18  10.71
626.3  34490.69  3782.53  10.97
627.7  34145.81  3835.02  11.23
629.1  33851.16  3902.48  11.53
630.5  33743.57  3983.57  11.81
631.9  33775.53  4074.81  12.06
633.3  33808.52  4157.25  12.30
634.7  33992.91  4240.44  12.47
636.1  34075.08  4308.53  12.64
637.5  34196.58  4362.93  12.76
638.9  34374.61  4393.51  12.78
640.2  34545.58  4390.71  12.71
641.6  34634.34  4358.02  12.58
643.0  34657.83  4299.38  12.41
644.4  34696.37  4223.82  12.17
645.8  34653.86  4117.44  11.88
647.2  34834.41  4035.16  11.58
648.5  34958.93  3936.25  11.26
649.9  34861.32  3823.45  10.97
651.3  34789.65  3740.68  10.75
652.7  34680.00  3670.81  10.58
654.1  34452.30  3652.12  10.60
655.5  34172.42  3638.06  10.65
656.8  33904.63  3621.57  10.68
658.2  34070.04  3622.21  10.63
659.6  34442.82  3629.24  10.54
660.9  34748.70  3600.50  10.36
662.3  35067.95  3569.05  10.18
663.7  35364.00  3524.36  9.97
665.0  35617.00  3470.14  9.74
666.4  35877.31  3417.85  9.53
667.8  36209.10  3380.61  9.34
669.1  36482.80  3349.71  9.18
670.5  36799.72  3331.32  9.05
671.9  36995.40  3314.05  8.96
673.2  37270.13  3322.30  8.91
674.6  37530.47  3348.97  8.92
676.0  37841.78  3395.86  8.97
677.3  38141.57  3469.04  9.10
678.7  38483.75  3577.65  9.30
680.0  38922.37  3734.34  9.59
681.4  39389.45  3953.06  10.04
682.8  39844.35  4230.89  10.62
684.1  40287.78  4594.82  11.40
685.5  40705.56  5033.88  12.37
686.8  41091.84  5549.43  13.50
688.2  41433.89  6138.47  14.82
689.5  41549.57  6747.75  16.24
690.9  41633.44  7391.90  17.75
692.2  41697.60  8045.93  19.30
693.6  41771.65  8695.84  20.82
694.9  41721.88  9290.93  22.27
696.2  41751.90  9875.45  23.65
697.6  41766.04  10435.20  24.98
698.9  41796.48  10961.28  26.23
700.3  41844.24  11451.45  27.37
701.6  41918.48  11919.46  28.43
703.0  41979.40  12354.91  29.43
704.3  41981.71  12732.73  30.33
705.6  41967.18  13068.73  31.14
707.0  41980.75  13388.57  31.89
708.3  41872.71  13633.43  32.56
709.6  41753.67  13858.05  33.19
711.0  41589.99  14038.85  33.76
712.3  41418.66  14193.78  34.27
713.6  41354.04  14373.07  34.76
714.9  41240.96  14521.19  35.21
716.3  41218.54  14679.98  35.61
717.6  41221.95  14843.51  36.01
718.9  41134.56  14960.97  36.37
720.2  40936.00  15016.69  36.68
721.6  40765.66  15086.15  37.01
722.9  40572.15  15122.70  37.27
724.2  40305.71  15120.50  37.51
725.5  40134.57  15124.48  37.68
726.8  39960.91  15129.70  37.86
728.1  39855.98  15152.38  38.02
729.5  39766.23  15165.66  38.14
730.8  39707.44  15178.89  38.23
732.1  39612.07  15173.47  38.31
733.4  39556.45  15165.68  38.34
734.7  39507.57  15165.19  38.39
736.0  39511.29  15180.91  38.42
737.3  39463.58  15171.46  38.44
738.6  39569.04  15241.44  38.52
739.9  39770.92  15346.17  38.59
741.2  39928.98  15421.22  38.62
742.5  40206.42  15546.78  38.67
743.8  40696.43  15750.55  38.70
745.1  41398.16  16050.69  38.77
746.4  42245.84  16399.99  38.82
747.7  43136.62  16774.12  38.89
749.0  43980.49  17157.12  39.01
750.3  44484.44  17407.99  39.13
751.6  44396.66  17426.64  39.25
752.9  43969.12  17266.76  39.27
754.2  43470.53  17082.24  39.30
755.4  42928.75  16857.80  39.27
756.7  42746.48  16785.91  39.27
758.0  42774.71  16813.26  39.31
759.3  43048.01  16932.85  39.33
760.6  43418.76  17091.74  39.36
761.9  43775.94  17239.98  39.38
763.1  43996.61  17331.10  39.39
764.4  44239.34  17453.41  39.45
765.7  44424.25  17541.98  39.49
767.0  44583.75  17617.52  39.52
768.2  44688.00  17676.73  39.56
769.5  44782.92  17721.10  39.57
770.8  44990.42  17811.83  39.59
772.0  45014.41  17839.39  39.63
773.3  45100.97  17892.24  39.67
774.6  45226.84  17964.65  39.72
775.8  45313.45  18030.45  39.79
777.1  45344.81  18063.14  39.84
778.4  45245.88  18042.40  39.88
779.6  45226.44  18061.23  39.94
780.9  45132.00  18043.47  39.98
782.1  44952.26  17978.19  39.99
783.4  44936.32  17990.06  40.03
784.6  44935.72  18001.97  40.06
785.9  45255.62  18151.01  40.11
787.1  45836.93  18425.15  40.20
788.4  46288.94  18710.70  40.42
789.6  46219.23  18759.76  40.59
790.9  45788.99  18585.56  40.59
792.1  45296.16  18390.44  40.60
793.4  44771.54  18195.85  40.64
794.6  44415.30  18095.82  40.74
795.8  44134.47  17996.47  40.78
797.1  43801.05  17873.92  40.81
798.3  43569.08  17803.04  40.86
799.5  43411.48  17770.71  40.94
800.8  43273.13  17729.38  40.97
802.0  43071.08  17671.09  41.03
803.2  42890.28  17621.67  41.09
804.5  42742.15  17584.99  41.14
805.7  42601.95  17535.54  41.16
806.9  42426.40  17488.52  41.22
808.1  42305.67  17458.32  41.27
809.4  42221.44  17444.27  41.32
810.6  42105.70  17393.74  41.31
811.8  42062.43  17381.60  41.32
813.0  42071.08  17379.80  41.31
814.2  42081.20  17383.32  41.31
815.4  42185.03  17429.52  41.32
816.6  42225.34  17443.79  41.31
817.9  42273.21  17458.44  41.30
819.1  42166.58  17417.81  41.31
820.3  42039.03  17331.43  41.23
821.5  41905.07  17257.98  41.18
822.7  41849.58  17202.99  41.11
823.9  41838.35  17166.24  41.03
825.1  41851.34  17128.62  40.93
826.3  41890.94  17099.18  40.82
827.5  41937.05  17071.62  40.71
828.7  42011.28  17038.59  40.56
829.9  42039.57  16996.59  40.43
831.0  42140.75  16989.24  40.32
832.2  42235.78  16981.22  40.21
833.4  42305.18  16970.77  40.12
834.6  42417.19  16969.38  40.01
835.8  42496.65  16964.96  39.92
837.0  42597.61  16983.43  39.87
838.1  42745.68  17031.15  39.84
839.3  42856.00  17038.51  39.76
840.5  42989.60  17068.65  39.70
841.7  43156.80  17117.20  39.66
842.9  43298.86  17150.46  39.61
844.0  43430.88  17175.77  39.55
845.2  43568.90  17216.91  39.52
846.4  43732.15  17247.16  39.44
847.5  43960.00  17329.40  39.42
848.7  44164.79  17404.14  39.41
849.9  44393.85  17487.21  39.39
851.0  44478.08  17518.35  39.39
852.2  44569.63  17548.67  39.37
853.3  44562.81  17538.69  39.36
854.5  44594.90  17531.00  39.31
855.6  44615.97  17521.57  39.27
856.8  44687.86  17539.26  39.25
857.9  44681.40  17527.10  39.23
859.1  44832.20  17577.00  39.21
860.2  44876.88  17578.14  39.17
861.4  44954.55  17565.81  39.07
862.5  45021.69  17591.09  39.07
863.7  45150.84  17628.14  39.04
864.8  45213.35  17606.10  38.94
865.9  45167.77  17574.99  38.91
867.1  45241.43  17598.07  38.90
868.2  45295.54  17587.51  38.83
869.3  45314.27  17586.70  38.81
870.5  45282.48  17535.07  38.72
871.6  45315.83  17526.38  38.68
872.7  45413.27  17552.82  38.65
873.9  45478.16  17556.17  38.60
875.0  45456.71  17509.42  38.52
876.1  45452.45  17475.95  38.45
877.2  45498.99  17467.52  38.39
878.3  45519.98  17431.13  38.29
879.4  45563.53  17410.96  38.21
880.5  45631.08  17416.71  38.17
881.7  45596.20  17368.69  38.09
882.8  45693.96  17374.73  38.02
883.9  45722.91  17374.29  38.00
885.0  45675.63  17332.72  37.95
886.1  45712.78  17315.20  37.88
887.2  45537.58  17227.83  37.83
888.3  45475.07  17184.07  37.79
889.4  45347.40  17094.05  37.70
890.5  45259.13  17032.06  37.63
891.6  45193.70  16977.34  37.57
892.7  45201.31  16942.35  37.48
893.8  45270.56  16919.90  37.38
894.9  45248.28  16883.81  37.31
896.0  45235.90  16832.76  37.21
897.0  45257.72  16819.15  37.16
898.1  45230.13  16781.28  37.10
899.2  45252.30  16743.51  37.00
900.3  45165.90  16662.87  36.89
901.4  45101.16  16602.46  36.81
902.4  45077.20  16573.76  36.77
903.5  45018.01  16525.30  36.71
904.6  45035.56  16481.53  36.60
905.7  45038.93  16450.31  36.52
906.7  44985.82  16407.76  36.47
907.8  45025.57  16394.12  36.41
908.9  44904.57  16311.80  36.33
909.9  44897.74  16271.48  36.24
911.0  44830.08  16201.33  36.14
912.1  44749.25  16131.37  36.05
913.1  44707.00  16080.03  35.97
914.2  44554.62  15965.41  35.83
915.2  44505.45  15903.42  35.73
916.3  44491.35  15861.58  35.65
917.3  44461.10  15808.39  35.56
918.4  44383.35  15684.42  35.34
919.4  44330.69  15601.48  35.19
920.5  44315.70  15548.72  35.09
921.5  44285.78  15488.55  34.97
922.6  44268.10  15385.17  34.75
923.6  44262.16  15342.94  34.66
924.7  44333.00  15286.50  34.48
925.7  44276.22  15188.80  34.30
926.7  44252.98  15121.78  34.17
927.8  44374.33  15055.21  33.93
928.8  44502.63  14999.82  33.71
929.9  44598.23  14977.62  33.58
930.9  44802.27  14950.08  33.37
931.9  45011.35  14932.28  33.17
932.9  45355.12  14942.33  32.95
934.0  45370.16  14885.91  32.81
935.0  45397.97  14775.26  32.55
936.0  45413.73  14664.11  32.29
937.0  45319.95  14561.86  32.13
938.1  45295.44  14435.13  31.87
939.1  45257.91  14315.25  31.63
940.1  45342.90  14259.65  31.45
941.1  45568.46  14221.69  31.21
942.1  45803.34  14198.83  31.00
943.1  45999.43  14142.68  30.75
944.1  46171.28  14107.25  30.55
945.2  46338.18  14023.41  30.26
946.2  46411.22  13956.79  30.07
947.2  46518.25  13895.73  29.87
948.2  46693.82  13813.25  29.58
949.2  46838.19  13725.95  29.31
950.2  46912.95  13616.32  29.02
951.2  46909.80  13546.96  28.88
952.2  47054.57  13466.99  28.62
953.2  47260.85  13406.35  28.37
954.2  47365.65  13329.32  28.14
955.2  47408.68  13231.21  27.91
956.2  47434.65  13130.37  27.68
957.2  47543.77  13063.63  27.48
958.2  47601.59  12993.82  27.30
959.2  47735.55  12960.36  27.15
960.1  47775.14  12912.51  27.03
961.1  47870.63  12864.14  26.87
962.1  47933.44  12863.00  26.84
963.1  48032.50  12829.34  26.71
964.1  48057.21  12786.62  26.61
965.1  48243.99  12824.14  26.58
966.1  48335.33  12812.04  26.51
967.0  48410.39  12784.01  26.41
968.0  48434.88  12757.99  26.34
969.0  48556.60  12788.64  26.34
970.0  48603.65  12781.45  26.30
971.0  48737.12  12768.71  26.20
971.9  48722.90  12734.55  26.14
972.9  48879.95  12724.85  26.03
973.9  48859.53  12721.11  26.04
974.9  49044.08  12708.55  25.91
975.8  49101.73  12681.30  25.83
976.8  49135.91  12650.95  25.75
977.8  49315.41  12645.30  25.64
978.8  49372.50  12652.98  25.63
979.7  49504.50  12638.93  25.53
981.4  50850.20  14985.95  29.47
985.3  50481.20  14982.65  29.68
989.3  50535.22  15121.50  29.92
993.3  50635.09  15305.62  30.23
997.2  50595.02  15456.74  30.55
1001.2  50545.04  15612.74  30.89
1005.2  50473.33  15761.36  31.23
1009.1  50535.74  15954.56  31.57
1013.1  50697.93  16210.28  31.97
1017.1  50843.90  16466.22  32.39
1021.0  50855.49  16677.09  32.79
1025.0  50816.26  16898.43  33.25
1029.0  50641.08  17053.64  33.68
1032.9  50496.42  17199.91  34.06
1036.9  50486.34  17402.89  34.47
1040.9  50614.23  17643.17  34.86
1044.8  50848.91  17913.48  35.23
1048.8  51055.33  18148.20  35.55
1052.7  51200.97  18346.69  35.83
1056.7  51265.76  18492.22  36.07
1060.7  51328.86  18601.01  36.24
1064.6  51364.29  18686.75  36.38
1068.6  51285.22  18700.06  36.46
1072.5  51205.93  18670.27  36.46
1076.5  51155.97  18637.10  36.43
1080.4  51154.95  18596.03  36.35
1084.4  51258.31  18549.74  36.19
1088.3  51367.47  18485.56  35.99
1092.3  51376.13  18351.80  35.72
1096.2  51342.58  18201.60  35.45
1100.2  51360.86  18069.04  35.18
1104.1  51244.60  17864.85  34.86
1108.1  51175.76  17670.28  34.53
1112.0  51059.75  17453.79  34.18
1116.0  50831.30  17184.31  33.81
1119.9  50653.13  16886.98  33.34
1123.9  50703.41  16607.47  32.75
1127.8  50649.60  16200.96  31.99
1131.8  50608.23  15679.42  30.98
1135.7  50617.81  15082.95  29.80
1139.6  50606.06  14412.12  28.48
1143.6  50555.26  13764.51  27.23
1147.5  50517.05  13195.68  26.12
1151.4  50365.69  12689.15  25.19
1155.4  50355.11  12355.36  24.54
1159.3  50376.78  12134.54  24.09
1163.2  50207.59  11942.58  23.79
1167.2  50161.80  11823.60  23.57
1171.1  50174.37  11734.58  23.39
1175.0  50101.08  11638.41  23.23
1179.0  50065.70  11557.27  23.08
1182.9  50165.17  11510.33  22.94
1186.8  50159.61  11436.61  22.80
1190.7  49934.95  11327.17  22.68
1194.7  49665.47  11229.55  22.61
1198.6  49438.62  11156.15  22.57
1202.5  49264.40  11118.43  22.57
1206.4  49122.14  11097.87  22.59
1210.3  49037.26  11087.86  22.61
1214.2  48930.30  11106.54  22.70
1218.2  48765.56  11133.10  22.83
1222.1  48630.48  11163.39  22.96
1226.0  48538.40  11215.73  23.11
1229.9  48450.48  11259.32  23.24
1233.8  48352.03  11286.21  23.34
1237.7  48317.50  11332.82  23.45
1241.6  48229.08  11357.52  23.55
1245.5  48061.09  11354.93  23.63
1249.4  47934.98  11356.04  23.69
1253.3  47803.87  11354.45  23.75
1257.2  47735.46  11363.90  23.81
1261.1  47624.11  11353.93  23.84
1265.0  47490.52  11319.54  23.84
1268.9  47304.07  11268.47  23.82
1272.8  47372.70  11268.90  23.79
1276.7  47590.81  11283.44  23.71
1280.6  47691.16  11250.19  23.59
1284.5  47615.01  11160.40  23.44
1288.4  47591.67  11070.51  23.26
1292.3  47467.75  10937.67  23.04
1296.2  47318.59  10789.06  22.80
1300.1  47148.87  10620.95  22.53
1303.9  46897.39  10408.13  22.19
1307.8  46639.44  10177.64  21.82
1311.7  46386.67  9925.26  21.40
1315.6  46123.85  9660.82  20.95
1319.5  45848.18  9379.18  20.46
1323.3  45606.50  9087.71  19.93
1327.2  45386.16  8794.63  19.38
1331.1  45132.53  8500.93  18.84
1335.0  44824.46  8196.49  18.29
1338.8  44600.56  7926.70  17.77
1342.7  44421.07  7688.93  17.31
1346.5  44042.02  7428.16  16.87
1350.4  43720.62  7192.58  16.45
1354.3  43279.60  6946.39  16.05
1358.1  42799.92  6691.96  15.64
1362.0  42533.76  6454.93  15.18
1365.8  42447.40  6250.73  14.73
1369.7  42569.31  6069.22  14.26
1373.5  42515.11  5823.27  13.70
1377.4  42239.08  5495.00  13.01
1381.2  42024.35  5088.15  12.11
1385.1  42007.68  4662.65  11.10
1389.0  41913.21  4227.94  10.09
1392.8  41686.58  3799.10  9.11
1396.6  41522.45  3420.08  8.24
1400.5  41297.26  3077.26  7.45
1404.3  41119.22  2798.38  6.81
1408.2  41089.83  2581.28  6.28
1412.0  41038.18  2408.75  5.87
1415.8  41063.56  2285.95  5.57
1419.6  41020.11  2180.01  5.31
1423.5  40984.07  2101.45  5.13
1427.3  40938.38  2045.75  5.00
1431.1  40915.35  2003.38  4.90
1434.9  40812.08  1964.19  4.81
1438.8  40755.58  1940.74  4.76
1442.6  40720.04  1927.95  4.73
1446.4  40579.53  1907.00  4.70
1450.2  40476.97  1895.85  4.68
1454.0  40349.16  1888.60  4.68
1457.8  40313.93  1890.38  4.69
1461.6  40291.52  1902.81  4.72
1465.4  40157.17  1914.96  4.77
1469.2  39958.10  1926.17  4.82
1473.0  39808.79  1952.91  4.91
1476.8  39739.71  1993.25  5.02
1480.7  39668.27  2037.42  5.14
1484.4  39532.92  2089.24  5.28
1488.2  39418.92  2154.60  5.47
1492.0  39281.08  2224.73  5.66
1495.8  39157.30  2286.38  5.84
1499.6  39041.55  2338.26  5.99
1503.4  38891.42  2381.04  6.12
1507.2  38758.78  2418.18  6.24
1510.9  38603.27  2450.00  6.35
1514.7  38431.80  2480.31  6.45
1518.5  38296.78  2516.21  6.57
1522.3  38148.01  2556.15  6.70
1526.0  38038.86  2593.70  6.82
1529.8  37977.87  2627.66  6.92
1533.6  37845.65  2662.46  7.04
1537.3  37710.11  2706.73  7.18
1541.1  37580.52  2752.24  7.32
1544.8  37449.60  2796.80  7.47
1548.6  37314.89  2842.33  7.62
1552.4  37219.38  2893.95  7.78
1556.1  37135.69  2955.46  7.96
1559.9  37030.39  3016.44  8.15
1563.6  36900.49  3061.90  8.30
1567.3  36782.10  3107.80  8.45
1571.1  36560.28  3152.16  8.62
1574.8  36404.14  3198.58  8.79
1578.6  36302.38  3241.31  8.93
1582.3  36157.52  3270.54  9.05
1586.0  36009.48  3293.70  9.15
1589.8  35863.84  3316.27  9.25
1593.5  35710.53  3337.18  9.35
1597.2  35575.62  3367.00  9.46
1600.9  35432.24  3389.03  9.56
1604.7  35280.85  3407.46  9.66
1608.4  35142.04  3433.36  9.77
1612.1  34980.47  3452.31  9.87
1615.8  34834.07  3471.06  9.96
1619.5  34752.20  3495.30  10.06
1623.2  34595.03  3513.17  10.16
1626.9  34406.93  3519.97  10.23
1630.6  34230.90  3526.75  10.30
1634.3  34081.71  3543.18  10.40
1638.0  33920.36  3551.40  10.47
1641.7  33748.10  3555.76  10.54
1645.4  33556.70  3560.68  10.61
1649.1  33353.05  3556.42  10.66
1652.8  33189.89  3548.84  10.69
1656.4  33018.59  3539.93  10.72
1660.1  32845.97  3531.98  10.75
1663.8  32642.92  3514.52  10.77
1667.5  32483.35  3501.23  10.78
1671.1  32351.26  3482.98  10.77
1674.8  32144.07  3455.18  10.75
1678.5  32080.00  3434.61  10.71
1682.1  32102.13  3421.76  10.66
1685.8  32123.16  3401.65  10.59
1689.5  32018.65  3368.06  10.52
1693.1  31881.24  3329.06  10.44
1696.8  31732.38  3287.80  10.36
1700.4  31582.94  3241.90  10.26
1704.0  31466.76  3194.91  10.15
1707.7  31189.67  3137.83  10.06
1711.3  30882.00  3069.19  9.94
1715.0  30659.79  3006.28  9.81
1718.6  30484.31  2947.08  9.67
1722.2  30333.58  2892.81  9.54
1725.9  30181.80  2839.29  9.41
1729.5  30037.98  2795.85  9.31
1733.1  29910.73  2769.25  9.26
1736.7  29788.38  2750.86  9.23
1740.3  29614.18  2727.11  9.21
1744.0  29528.30  2697.89  9.14
1747.5  29373.44  2657.20  9.05
1751.2  29138.63  2604.01  8.94
1754.8  28975.37  2558.31  8.83
1758.4  28834.48  2519.09  8.74
1762.0  28639.33  2473.41  8.64
1765.5  28498.38  2439.97  8.56
1769.1  28452.00  2427.20  8.53
1772.7  28378.96  2407.28  8.48
1776.3  28252.73  2382.41  8.43
1779.9  28119.54  2359.64  8.39
1783.5  28061.20  2341.95  8.35
1787.0  27938.82  2322.41  8.31
1790.6  27774.17  2300.91  8.28
1794.2  27666.21  2286.51  8.26
1797.8  27558.84  2280.32  8.27
1801.3  27465.68  2275.83  8.29
1804.9  27315.75  2264.50  8.29
1808.4  27221.13  2259.75  8.30
1812.0  27071.27  2247.12  8.30
1815.5  26907.62  2236.05  8.31
1819.1  26703.43  2219.60  8.31
1822.6  26545.43  2201.06  8.29
1826.2  26400.51  2189.28  8.29
1829.7  26207.46  2169.45  8.28
1833.2  25952.41  2140.32  8.25
1836.8  25712.51  2107.41  8.20
1840.3  25567.16  2078.31  8.13
1843.8  25454.03  2050.00  8.05
1847.3  25371.56  2023.51  7.98
1850.8  25264.51  1986.43  7.86
1854.3  25105.60  1940.29  7.73
1857.8  25027.60  1885.87  7.54
1861.3  25027.70  1814.29  7.25
1864.8  24948.54  1731.51  6.94
1868.3  24715.93  1603.66  6.49
1871.8  24529.92  1464.32  5.97
1875.3  24489.01  1345.89  5.50
1878.8  24485.84  1234.86  5.04
1882.3  24423.29  1122.73  4.60
1885.8  24245.59  1009.23  4.16
1889.3  24030.42  925.85  3.85
1892.7  23852.68  858.84  3.60
1896.2  23673.74  813.57  3.44
1899.7  23427.69  800.95  3.42
1901.7  21937.94  468.31  2.13
1904.5  22143.94  424.96  1.92
1907.2  22059.00  425.92  1.93
1910.0  21927.95  435.22  1.98
1912.7  21918.25  435.03  1.98
1915.5  21816.04  418.98  1.92
1918.2  21741.95  413.89  1.90
1921.0  21589.30  402.28  1.86
1923.7  21620.81  383.53  1.77
1926.5  21581.93  391.88  1.82
1929.2  21568.04  394.42  1.83
1932.0  21551.20  401.32  1.86
1934.7  21508.34  407.51  1.89
1937.4  21385.99  398.05  1.86
1940.2  21322.79  403.63  1.89
1942.9  21412.44  407.02  1.90
1945.6  21432.94  394.61  1.84
1948.3  21347.13  411.14  1.93
1951.1  21319.83  411.37  1.93
1953.8  21321.00  426.00  2.00
1956.5  21174.65  437.27  2.07
1959.2  21255.91  423.58  1.99
1961.9  21274.22  434.09  2.04
1964.6  21161.18  441.29  2.09
1967.3  21232.43  440.06  2.07
1970.0  21063.36  439.07  2.08
1972.8  20962.32  456.94  2.18
1975.5  21019.32  469.24  2.23
1978.2  20951.00  471.09  2.25
1980.9  20833.51  481.95  2.31
1983.5  20753.87  481.81  2.32
1986.2  20730.84  485.00  2.34
1988.9  20710.47  498.58  2.41
1991.6  20560.54  498.23  2.42
1994.3  20429.18  499.68  2.45
1997.0  20463.02  519.00  2.54
1999.7  20411.81  520.73  2.55
2002.3  20392.69  524.51  2.57
2005.0  20300.64  533.14  2.63
2007.7  20215.73  534.15  2.64
2010.4  20150.59  530.08  2.63
2013.0  20054.41  540.55  2.70
2015.7  19971.23  548.44  2.75
2018.4  19850.99  555.04  2.80
2021.0  19776.67  573.28  2.90
2023.7  19665.12  576.64  2.93
2026.4  19623.72  577.42  2.94
2029.0  19549.52  585.76  3.00
2031.7  19389.93  587.74  3.03
2034.3  19392.75  579.30  2.99
2037.0  19277.12  583.65  3.03
2039.6  19203.81  594.55  3.10
2042.3  19169.68  594.43  3.10
2044.9  19085.22  607.75  3.18
2047.5  19057.17  612.43  3.21
2050.2  18939.20  607.60  3.21
2052.8  18894.40  616.00  3.26
2055.4  18768.37  632.24  3.37
2058.1  18622.80  618.80  3.32
2060.7  18569.98  618.63  3.33
2063.3  18475.60  636.29  3.44
2065.9  18427.79  629.99  3.42
2068.6  18352.42  640.22  3.49
2071.2  18299.61  635.19  3.47
2073.8  18217.15  635.22  3.49
2076.4  18153.52  659.57  3.63
2079.0  18135.74  646.30  3.56
2081.6  18151.63  635.81  3.50
2084.2  18112.28  664.97  3.67
2086.8  17948.60  665.60  3.71
2089.4  17865.33  657.16  3.68
2092.1  17782.00  676.22  3.80
2094.7  17712.75  674.24  3.81
2097.2  17685.67  670.56  3.79
2099.8  17677.80  684.15  3.87
2102.4  17557.58  689.03  3.92
2105.0  17419.20  690.65  3.96
2107.6  17352.05  684.55  3.95
2110.2  17317.12  696.21  4.02
2112.8  17308.85  706.29  4.08
2115.3  17299.79  710.12  4.10
2117.9  17305.54  714.78  4.13
2120.5  17283.04  713.20  4.13
2123.1  17169.75  731.25  4.26
2125.6  17130.75  735.01  4.29
2128.2  17041.98  727.76  4.27
2130.8  16938.68  735.15  4.34
2133.3  16907.73  731.38  4.33
2135.9  16811.63  719.73  4.28
2138.4  16669.29  721.93  4.33
2141.0  16557.51  734.59  4.44
2143.6  16519.94  743.67  4.50
2146.1  16331.26  738.50  4.52
2148.7  16166.35  739.06  4.57
2151.2  16200.80  741.16  4.57
2153.8  16223.65  732.89  4.52
2156.3  16092.71  742.27  4.61
2158.8  16012.97  746.21  4.66
2161.4  15977.02  742.00  4.64
2163.9  15879.72  742.00  4.67
2166.4  15806.34  748.04  4.73
2169.0  15776.77  756.91  4.80
2171.5  15691.03  749.02  4.77
2174.0  15580.08  749.70  4.81
2176.5  15568.93  759.46  4.88
2179.1  15528.15  742.88  4.78
2181.6  15436.46  735.07  4.76
2184.1  15393.84  756.65  4.92
2186.6  15412.36  747.97  4.85
2189.1  15330.96  728.67  4.75
2191.6  15265.13  740.44  4.85
2194.1  15289.63  751.81  4.92
2196.6  15291.79  752.93  4.92
2199.2  15355.64  773.25  5.04
2201.7  15282.97  762.90  4.99
2204.1  15217.08  734.22  4.82
2206.6  15263.16  748.49  4.90
2209.1  15196.78  758.26  4.99
2211.6  15154.34  766.41  5.06
2214.1  15142.04  760.33  5.02
2216.6  15136.36  743.21  4.91
2219.1  15121.17  748.27  4.95
2221.6  15017.30  735.95  4.90
2224.0  14973.30  728.98  4.87
2226.5  14953.65  729.30  4.88
2229.0  14990.65  728.34  4.86
2231.5  14856.57  722.59  4.86
2233.9  14819.93  719.64  4.86
2236.4  14830.12  696.09  4.69
2238.9  14725.00  689.75  4.68
2241.3  14738.24  695.71  4.72
2243.8  14703.26  690.53  4.70
2246.2  14560.76  668.08  4.59
2248.7  14543.49  645.35  4.44
2251.2  14547.02  661.05  4.54
2253.6  14461.44  643.84  4.45
2256.1  14411.52  633.60  4.40
2258.5  14448.51  631.31  4.37
2260.9  14358.24  605.93  4.22
2263.4  14286.28  592.39  4.15
2265.8  14286.52  600.08  4.20
2268.3  14242.68  600.34  4.22
2270.7  14293.95  588.54  4.12
2273.1  14208.68  577.81  4.07
2275.6  14138.88  572.16  4.05
2278.0  14162.68  567.53  4.01
2280.4  14119.54  561.86  3.98
2282.8  13992.20  543.33  3.88
2285.3  14040.77  541.77  3.86
2287.7  14128.29  545.40  3.86
2290.1  13998.75  523.16  3.74
2292.5  13976.47  501.33  3.59
2294.9  14012.61  507.13  3.62
2297.3  13889.96  487.79  3.51
2299.7  13787.58  480.38  3.48
2302.1  13749.17  492.35  3.58
2304.5  13602.40  465.17  3.42
2306.9  13496.56  441.65  3.27
2309.3  13451.64  442.77  3.29
2311.7  13329.30  450.07  3.38
2314.1  13154.03  429.28  3.26
2316.5  13124.14  426.83  3.25
2318.9  13145.46  442.78  3.37
2321.3  13101.23  445.03  3.40
2323.7  13118.10  447.25  3.41
2326.1  13081.38  439.27  3.36
2328.4  13108.17  432.60  3.30
2330.8  13202.52  433.54  3.28
2333.2  13104.54  421.44  3.22
2335.6  13023.78  408.25  3.13
2337.9  13062.53  431.24  3.30
2340.3  13002.24  417.04  3.21
2342.7  12902.35  397.78  3.08
2345.0  12884.39  403.44  3.13
2347.4  12860.50  372.58  2.90
2349.7  12661.22  367.37  2.90
2352.1  12633.43  394.53  3.12
2354.4  12658.59  395.45  3.12
2356.8  12578.77  362.60  2.88
2359.2  12527.67  371.22  2.96
2361.5  12479.13  386.88  3.10
2363.8  12494.29  373.29  2.99
2366.2  12489.73  364.84  2.92
2368.5  12451.10  358.97  2.88
2370.9  12453.76  354.89  2.85
2373.2  12415.30  343.25  2.76
2375.5  12276.33  349.94  2.85
2377.9  12211.78  349.48  2.86
2380.2  12242.21  339.05  2.77
2382.5  12139.99  336.97  2.78
2384.8  12068.64  338.72  2.81
2387.2  12086.52  334.44  2.77
2389.5  12068.58  325.79  2.70
2391.8  12016.43  327.98  2.73
2394.1  11909.46  355.08  2.98
2396.4  11863.59  349.97  2.95
2398.7  11940.46  323.15  2.71
2401.0  11823.50  314.83  2.66
2403.3  11693.04  310.42  2.65
2405.6  11741.09  298.23  2.54
2407.9  11668.29  293.92  2.52
2410.2  11575.79  304.14  2.63
2412.5  11525.22  301.51  2.62
2414.8  11512.67  287.56  2.50
2417.1  11505.36  277.01  2.41
2419.4  11477.63  258.76  2.25
2421.7  11364.91  294.37  2.59
2424.0  11316.90  288.82  2.55
2426.2  11347.35  262.15  2.31
2428.5  11281.78  286.64  2.54
2430.8  11243.35  270.68  2.41
2433.1  11179.50  239.71  2.14
2435.4  11100.48  270.43  2.44
2437.6  11066.91  274.16  2.48
2439.9  10932.41  245.19  2.24
2442.2  10967.11  252.18  2.30
2444.4  10975.51  258.45  2.35
2446.7  10909.12  241.39  2.21
2448.9  10931.40  219.10  2.00
2451.2  10853.16  246.35  2.27
2453.4  10787.73  229.01  2.12
2455.7  10721.98  216.91  2.02
2457.9  10647.12  227.92  2.14
2460.2  10665.45  209.61  1.97
2462.4  10576.80  247.52  2.34
2464.7  10503.38  233.41  2.22
2466.9  10471.02  181.90  1.74
2469.2  10480.86  220.38  2.10
2471.4  10359.57  240.72  2.32
2473.6  10250.05  200.85  1.96
2475.9  10220.96  187.39  1.83
2478.1  10124.53  204.95  2.02
2480.3  10080.49  183.32  1.82
2482.5  10057.71  207.30  2.06
2484.8  9961.32  220.88  2.22
2487.0  9924.93  172.82  1.74
2489.2  9935.52  188.46  1.90
2491.4  9875.23  199.81  2.02
2493.6  9884.14  182.90  1.85
2495.8  9866.24  176.84  1.79
2498.0  9849.60  202.67  2.06
2500.2  9865.68  199.39  2.02
2502.4  10096.56  210.16  2.08
2504.6  10244.49  200.32  1.96
2506.8  10345.65  142.88  1.38
