/*** Spectra Vista SIG Data ***/
name= GS.sig
comm= Resampled spectral data SIG file reprocesed for matching/overlap;Averaged Ref/Tar of files: GD2S4,GD2S5,GD2S6
data=
346.0  509.60  215.52  42.29
356.0  828.71  250.10  30.18
366.0  1135.02  282.89  24.92
376.0  1579.37  303.86  19.24
386.0  1995.77  304.29  15.25
396.0  2559.82  377.16  14.73
406.0  3091.33  400.01  12.94
416.0  3756.05  499.51  13.30
426.0  4330.84  568.62  13.13
436.0  5235.06  668.24  12.76
446.0  6088.18  833.83  13.70
456.0  6942.22  1046.69  15.08
466.0  8223.74  1296.86  15.77
476.0  9370.48  1551.02  16.55
486.0  10269.91  1735.68  16.90
496.0  11746.45  2306.99  19.64
506.0  13053.58  3358.31  25.73
516.0  13946.28  4882.27  35.01
526.0  15576.79  7009.34  45.00
536.0  17486.02  9028.11  51.63
546.0  19041.40  10473.87  55.01
556.0  19524.52  10820.19  55.42
566.0  20999.31  11208.59  53.38
576.0  23067.50  11365.21  49.27
586.0  24676.47  11316.62  45.86
596.0  26082.33  11377.96  43.62
606.0  26687.61  11055.00  41.42
616.0  28173.19  10755.95  38.18
626.0  30688.38  11414.15  37.19
636.0  30262.72  10775.02  35.60
646.0  30879.36  9417.62  30.50
656.0  30774.24  8008.77  26.02
666.0  32506.69  6603.30  20.31
676.0  34219.05  6305.93  18.43
686.0  36429.62  9127.13  25.05
696.0  37023.78  18238.92  49.26
706.0  37160.43  27846.54  74.94
716.0  36697.84  33383.85  90.97
726.0  35913.80  35889.64  99.93
736.0  35729.66  36904.04  103.29
746.0  37736.85  40018.43  106.05
756.0  38321.00  41147.85  107.38
766.0  39510.69  43108.67  109.11
776.0  40059.59  44231.81  110.42
786.0  40131.74  44647.79  111.25
796.0  39280.82  43729.24  111.32
806.0  38244.14  42659.47  111.55
816.0  38036.29  42568.71  111.92
826.0  37709.30  42102.29  111.65
836.0  38038.49  42267.93  111.12
846.0  38692.27  43357.02  112.06
856.0  39178.52  44091.68  112.54
866.0  39402.80  44349.28  112.55
876.0  39579.78  44246.84  111.79
886.0  39738.64  43982.68  110.68
896.0  39527.49  43033.30  108.87
906.0  39437.50  42420.47  107.56
916.0  39115.31  41404.46  105.85
926.0  39024.38  40166.14  102.93
936.0  39929.50  39491.23  98.90
946.0  40662.60  38517.44  94.72
956.0  41393.84  36971.38  89.32
966.0  41958.59  36633.59  87.31
976.0  42665.70  37366.47  87.58
986.0  43514.08  35825.98  82.33
996.0  44198.08  36833.29  83.34
1006.0  44152.39  37594.24  85.15
1016.0  44379.04  38911.41  87.68
1026.0  44401.68  40033.72  90.16
1036.0  44210.66  40908.64  92.53
1046.0  44505.96  42224.29  94.87
1056.0  44664.21  43226.57  96.78
1066.0  44609.35  43663.20  97.88
1076.0  44397.60  43583.66  98.17
1086.0  44469.15  43407.13  97.61
1096.0  44486.78  42835.33  96.29
1106.0  44367.02  42004.74  94.68
1116.0  44078.91  40873.86  92.73
1126.0  43954.95  39320.31  89.46
1136.0  43902.29  36513.97  83.17
1146.0  43783.94  33206.84  75.84
1156.0  43564.50  31113.68  71.42
1166.0  43347.15  30289.28  69.88
1176.0  43236.47  29956.40  69.29
1186.0  43266.58  29739.42  68.74
1196.0  42749.21  29227.66  68.37
1206.0  42347.95  28985.22  68.45
1216.0  42062.65  29031.11  69.02
1226.0  41760.57  29177.02  69.87
1236.0  41549.33  29352.73  70.65
1246.0  41291.98  29439.67  71.30
1256.0  41002.94  29432.93  71.78
1266.0  40714.26  29288.02  71.94
1276.0  40752.77  29235.23  71.74
1286.0  40729.17  28941.15  71.06
1296.0  40419.20  28205.17  69.78
1306.0  39889.01  27022.70  67.74
1316.0  39301.71  25559.24  65.03
1326.0  38739.73  23930.25  61.77
1336.0  38152.03  22271.33  58.38
1346.0  37634.91  20738.41  55.10
1356.0  36932.28  19237.24  52.09
1366.0  36373.67  17995.86  49.47
1376.0  36238.22  16431.74  45.34
1386.0  35907.93  14006.27  39.01
1396.0  35482.45  11420.91  32.19
1406.0  35048.23  9520.67  27.16
1416.0  34958.68  8471.66  24.23
1426.0  34812.11  7939.16  22.81
1436.0  34651.53  7677.20  22.16
1446.0  34455.26  7559.02  21.94
1456.0  34203.50  7519.24  21.98
1466.0  34017.99  7608.32  22.37
1476.0  33677.47  7824.50  23.23
1486.0  33445.44  8216.48  24.57
1496.0  33136.51  8679.46  26.19
1506.0  32878.23  9034.57  27.48
1516.0  32532.33  9293.66  28.57
1526.0  32200.64  9539.08  29.62
1536.0  31935.91  9981.44  31.25
1546.0  31612.44  10336.59  32.70
1556.0  31368.42  10654.96  33.97
1566.0  31082.67  10938.83  35.19
1576.0  30694.72  11213.44  36.53
1586.0  30400.45  11412.15  37.54
1596.0  30038.76  11542.85  38.43
1606.0  29713.74  11661.60  39.25
1616.0  29361.62  11762.23  40.06
1626.0  29041.80  11847.12  40.79
1636.0  28665.08  11877.80  41.44
1646.0  28273.39  11830.53  41.84
1656.0  27876.35  11735.67  42.10
1666.0  27464.92  11615.91  42.29
1676.0  27087.15  11456.49  42.29
1686.0  27082.21  11343.51  41.89
1696.0  26749.12  11057.09  41.34
1706.0  26324.28  10684.45  40.59
1716.0  25713.57  10203.56  39.68
1726.0  25342.79  9817.65  38.74
1736.0  25046.96  9569.88  38.21
1746.0  24724.28  9299.23  37.61
1756.0  24256.84  8898.53  36.68
1766.0  23870.66  8584.38  35.96
1776.0  23641.10  8407.67  35.56
1786.0  23371.07  8238.09  35.25
1796.0  23059.77  8096.69  35.11
1806.0  22801.89  8002.14  35.09
1816.0  22515.30  7880.25  35.00
1826.0  22114.90  7728.66  34.95
1836.0  21613.42  7479.02  34.60
1846.0  21215.40  7271.35  34.27
1856.0  20774.86  6928.01  33.35
1866.0  20736.29  6195.33  29.88
1876.0  20407.50  5112.20  25.05
1886.0  20155.03  4083.69  20.26
1896.0  19660.33  3427.15  17.43
1906.0  18631.25  2184.42  11.72
1916.0  18318.88  2123.41  11.59
1926.0  18038.46  2096.57  11.62
1936.0  17863.51  2104.32  11.78
1946.0  17797.41  2168.53  12.18
1956.0  17592.99  2217.99  12.61
1966.0  17571.94  2340.72  13.32
1976.0  17404.06  2424.88  13.93
1986.0  17183.68  2502.17  14.56
1996.0  16906.31  2591.44  15.33
2006.0  16756.31  2693.78  16.08
2016.0  16485.40  2793.24  16.94
2026.0  16206.02  2848.99  17.58
2036.0  15962.47  2922.26  18.31
2046.0  15735.40  2988.77  18.99
2056.0  15460.05  3022.81  19.55
2066.0  15198.46  3063.32  20.16
2076.0  14951.14  3120.53  20.87
2086.0  14836.37  3183.48  21.46
2096.0  14558.23  3221.66  22.13
2106.0  14302.47  3249.58  22.72
2116.0  14222.98  3326.24  23.39
2126.0  14069.19  3372.09  23.97
2136.0  13798.40  3372.83  24.44
2146.0  13445.76  3352.45  24.93
2156.0  13239.56  3342.71  25.25
2166.0  12983.56  3311.03  25.50
2176.0  12771.15  3289.08  25.75
2186.0  12627.18  3278.34  25.96
2196.0  12513.18  3258.67  26.04
2206.0  12456.23  3234.52  25.97
2216.0  12351.60  3203.84  25.94
2226.0  12205.08  3129.29  25.64
2236.0  12132.89  3030.95  24.98
2246.0  11882.62  2915.89  24.54
2256.0  11773.90  2788.05  23.68
2266.0  11670.88  2653.67  22.74
2276.0  11528.71  2549.70  22.12
2286.0  11463.55  2446.54  21.34
2296.0  11358.16  2309.37  20.33
2306.0  11039.70  2115.66  19.16
2316.0  10655.77  2020.01  18.96
2326.0  10608.43  2032.97  19.16
2336.0  10592.93  1935.04  18.27
2346.0  10498.36  1850.14  17.62
2356.0  10259.04  1746.71  17.03
2366.0  10158.26  1698.56  16.72
2376.0  9929.58  1617.55  16.29
2386.0  9815.44  1537.63  15.67
2396.0  9663.63  1484.46  15.36
2406.0  9510.88  1409.45  14.82
2416.0  9304.41  1346.74  14.47
2426.0  9217.28  1283.17  13.92
2436.0  8983.54  1251.08  13.93
2446.0  8817.11  1155.56  13.11
2456.0  8689.94  1106.59  12.73
2466.0  8452.21  1028.19  12.16
2476.0  8254.64  1001.29  12.13
2486.0  8114.28  951.46  11.73
2496.0  7981.99  944.56  11.83
2506.0  8320.96  1003.25  12.06
