/*** Spectra Vista SIG Data ***/
name= GS3.sig
comm= Averaged Ref/Tar of files: GD6S7,GD6S8,GD6S9
data=
346.4  350.35  65.82  18.79
347.9  381.21  66.31  17.39
349.5  410.28  65.73  16.02
351.1  433.68  62.82  14.48
352.6  475.96  67.68  14.22
354.2  499.06  74.39  14.91
355.7  540.48  76.56  14.16
357.3  582.54  79.98  13.73
358.8  588.91  77.36  13.14
360.4  636.67  81.84  12.85
361.9  668.64  82.65  12.36
363.5  692.50  83.57  12.07
365.1  712.57  85.30  11.97
366.6  747.47  87.00  11.64
368.2  792.37  88.64  11.19
369.7  840.74  85.98  10.23
371.3  898.85  90.43  10.06
372.8  941.22  94.51  10.04
374.4  986.23  94.12  9.54
375.9  1017.83  95.77  9.41
377.4  1052.18  98.45  9.36
379.0  1086.82  97.81  9.00
380.5  1123.29  99.30  8.84
382.1  1153.93  101.45  8.79
383.6  1194.95  102.25  8.56
385.2  1251.25  101.75  8.13
386.7  1299.60  102.52  7.89
388.3  1372.34  108.16  7.88
389.8  1424.66  111.63  7.84
391.3  1483.01  116.97  7.89
392.9  1530.61  118.73  7.76
394.4  1562.39  123.45  7.90
395.9  1621.81  129.79  8.00
397.5  1711.90  137.38  8.03
399.0  1784.48  139.05  7.79
400.6  1838.09  134.71  7.33
402.1  1856.31  133.47  7.19
403.6  1888.03  134.26  7.11
405.1  1944.54  132.83  6.83
406.7  2010.40  138.13  6.87
408.2  2079.37  140.04  6.73
409.7  2148.16  144.71  6.74
411.3  2213.53  149.64  6.76
412.8  2271.65  155.95  6.86
414.3  2341.03  158.93  6.79
415.8  2417.50  166.00  6.87
417.4  2490.79  170.52  6.85
418.9  2548.98  175.25  6.88
420.4  2593.45  176.14  6.79
421.9  2640.22  179.72  6.81
423.5  2679.41  182.44  6.81
425.0  2722.85  183.55  6.74
426.5  2778.88  186.48  6.71
428.0  2849.90  191.43  6.72
429.5  2939.79  194.87  6.63
431.1  3042.79  200.85  6.60
432.6  3149.06  209.55  6.65
434.1  3259.99  215.09  6.60
435.6  3346.58  222.27  6.64
437.1  3441.75  227.24  6.60
438.6  3531.11  235.14  6.66
440.1  3611.12  241.86  6.70
441.6  3703.62  248.18  6.70
443.1  3787.76  254.75  6.73
444.7  3873.68  260.16  6.72
446.2  3941.61  266.21  6.75
447.7  4009.71  271.99  6.78
449.2  4084.56  277.20  6.79
450.7  4145.44  281.49  6.79
452.2  4210.01  285.19  6.77
453.7  4291.20  289.06  6.74
455.2  4393.26  295.70  6.73
456.7  4515.28  304.25  6.74
458.2  4654.47  314.20  6.75
459.7  4795.00  325.85  6.80
461.2  4934.06  336.53  6.82
462.7  5054.96  346.43  6.85
464.2  5177.07  355.51  6.87
465.7  5301.12  365.99  6.90
467.2  5404.44  377.04  6.98
468.7  5508.00  387.33  7.03
470.2  5586.81  397.64  7.12
471.7  5702.38  409.77  7.19
473.2  5885.72  422.78  7.18
474.6  6027.25  435.86  7.23
476.1  6074.86  438.42  7.22
477.6  6093.70  437.83  7.18
479.1  6122.60  441.85  7.22
480.6  6163.05  446.10  7.24
482.1  6243.66  449.44  7.20
483.6  6332.42  456.28  7.21
485.1  6458.38  466.12  7.22
486.6  6604.00  477.99  7.24
488.0  6753.50  489.56  7.25
489.5  6913.82  504.42  7.30
491.0  7075.65  518.91  7.33
492.5  7238.97  532.65  7.36
494.0  7404.10  548.27  7.40
495.4  7549.58  563.53  7.46
496.9  7695.36  576.60  7.49
498.4  7836.28  592.83  7.57
499.9  7979.51  608.91  7.63
501.4  8103.78  623.78  7.70
502.8  8223.51  638.33  7.76
504.3  8333.10  654.96  7.86
505.8  8444.88  670.57  7.94
507.2  8514.20  681.73  8.01
508.7  8565.01  694.40  8.11
510.2  8590.79  704.68  8.20
511.6  8618.22  717.56  8.33
513.1  8670.26  728.43  8.40
514.6  8732.77  742.08  8.50
516.0  8783.27  753.64  8.58
517.5  8880.96  771.01  8.68
519.0  8994.65  788.31  8.76
520.5  9112.66  806.23  8.85
521.9  9263.01  830.01  8.96
523.4  9434.43  852.05  9.03
524.8  9608.27  875.77  9.11
526.3  9802.81  902.23  9.20
527.8  10000.35  928.36  9.28
529.2  10181.33  953.85  9.37
530.7  10383.39  982.07  9.46
532.1  10567.68  1008.81  9.55
533.6  10773.42  1034.97  9.61
535.0  10980.59  1065.49  9.70
536.5  11186.70  1094.58  9.78
538.0  11401.56  1126.20  9.88
539.4  11601.83  1158.68  9.99
540.9  11838.18  1195.83  10.10
542.3  12056.36  1233.62  10.23
543.8  12205.88  1262.69  10.34
545.2  12241.58  1280.89  10.46
546.6  12248.30  1293.48  10.56
548.1  12260.70  1307.50  10.66
549.5  12261.13  1321.86  10.78
551.0  12260.01  1334.14  10.88
552.4  12274.54  1350.84  11.01
553.9  12279.40  1365.89  11.12
555.3  12300.80  1382.36  11.24
556.8  12360.66  1404.99  11.37
558.2  12414.09  1426.05  11.49
559.6  12499.51  1450.01  11.60
561.1  12612.44  1481.57  11.75
562.5  12742.28  1512.65  11.87
564.0  12915.37  1552.03  12.02
565.4  13070.62  1589.27  12.16
566.8  13269.64  1636.05  12.33
568.3  13461.39  1681.95  12.49
569.7  13659.35  1728.94  12.66
571.1  13859.91  1775.67  12.81
572.6  14064.03  1823.80  12.97
574.0  14250.23  1872.53  13.14
575.4  14437.41  1919.14  13.29
576.9  14612.77  1966.50  13.46
578.3  14771.90  2010.94  13.61
579.7  14927.19  2057.07  13.78
581.1  15049.34  2098.57  13.94
582.6  15179.87  2143.18  14.12
584.0  15306.40  2186.85  14.29
585.4  15471.50  2237.75  14.46
586.8  15703.41  2299.03  14.64
588.3  15959.97  2360.90  14.79
589.7  16164.72  2417.53  14.96
591.1  16308.26  2462.10  15.10
592.5  16380.50  2492.67  15.22
594.0  16416.90  2518.51  15.34
595.4  16426.30  2538.25  15.45
596.8  16438.21  2561.13  15.58
598.2  16446.40  2582.50  15.70
599.6  16446.15  2600.47  15.81
601.0  16488.64  2626.83  15.93
602.4  16524.83  2651.90  16.05
603.9  16595.00  2684.37  16.18
605.3  16677.56  2717.65  16.30
606.7  16748.10  2751.24  16.43
608.1  16880.08  2793.01  16.55
609.5  17023.96  2842.98  16.70
610.9  17200.20  2900.29  16.86
612.3  17363.60  2959.78  17.05
613.7  17583.26  3029.63  17.23
615.1  17730.09  3089.12  17.42
616.5  17885.32  3154.04  17.63
617.9  18120.27  3236.20  17.86
619.3  18343.55  3322.89  18.11
620.7  18613.68  3423.69  18.39
622.1  18877.69  3472.96  18.40
623.5  19168.37  3497.20  18.24
624.9  19495.88  3543.32  18.17
626.3  19705.80  3605.97  18.30
627.7  19502.63  3638.00  18.65
629.1  19316.59  3688.62  19.10
630.5  19234.56  3752.40  19.51
631.9  19243.16  3822.24  19.86
633.3  19227.78  3877.38  20.17
634.7  19307.14  3948.34  20.45
636.1  19335.07  4000.74  20.69
637.5  19378.14  4058.80  20.95
638.9  19457.31  4129.89  21.23
640.2  19514.53  4208.26  21.56
641.6  19531.98  4235.40  21.68
643.0  19504.65  4238.46  21.73
644.4  19507.28  4276.67  21.92
645.8  19449.04  4323.52  22.23
647.2  19526.59  4390.67  22.49
648.5  19579.91  4457.17  22.76
649.9  19492.88  4489.83  23.03
651.3  19428.45  4526.76  23.30
652.7  19344.30  4545.12  23.50
654.1  19217.52  4459.65  23.21
655.5  19076.42  4331.73  22.71
656.8  18936.77  4219.53  22.28
658.2  19052.33  4170.71  21.89
659.6  19274.42  4158.31  21.57
660.9  19463.87  4147.39  21.31
662.3  19650.11  4134.21  21.04
663.7  19826.10  4121.88  20.79
665.0  19986.79  4112.52  20.58
666.4  20146.14  4114.86  20.43
667.8  20346.56  4138.09  20.34
669.1  20529.76  4165.94  20.29
670.5  20738.52  4216.94  20.33
671.9  20872.26  4269.86  20.46
673.2  21059.41  4353.67  20.67
674.6  21230.21  4459.76  21.01
676.0  21420.32  4595.29  21.45
677.3  21614.12  4749.08  21.97
678.7  21817.38  4921.50  22.56
680.0  22089.50  5130.76  23.23
681.4  22373.47  5359.26  23.95
682.8  22657.86  5600.44  24.72
684.1  22942.53  5854.06  25.52
685.5  23200.94  6107.64  26.32
686.8  23448.72  6355.82  27.11
688.2  23672.40  6585.91  27.82
689.5  23749.65  6773.70  28.52
690.9  23825.77  6956.62  29.20
692.2  23869.28  7129.63  29.87
693.6  23926.69  7303.88  30.53
694.9  23920.11  7438.56  31.10
696.2  23942.14  7572.24  31.63
697.6  23961.85  7698.34  32.13
698.9  23992.32  7837.98  32.67
700.3  24038.01  7981.88  33.21
701.6  24084.68  8122.63  33.73
703.0  24137.54  8256.34  34.21
704.3  24141.49  8355.09  34.61
705.6  24144.66  8457.24  35.03
707.0  24151.61  8556.37  35.43
708.3  24094.31  8623.01  35.79
709.6  24038.25  8688.72  36.15
711.0  23936.43  8733.39  36.49
712.3  23827.16  8773.03  36.82
713.6  23789.01  8841.75  37.17
714.9  23716.29  8900.14  37.53
716.3  23686.39  8963.69  37.84
717.6  23672.15  9037.23  38.18
718.9  23614.96  9083.68  38.47
720.2  23494.56  9094.22  38.71
721.6  23399.74  9119.70  38.97
722.9  23270.63  9141.98  39.29
724.2  23091.17  9145.52  39.61
725.5  22957.02  9162.51  39.91
726.8  22832.78  9164.84  40.14
728.1  22750.67  9180.28  40.35
729.5  22685.44  9206.71  40.58
730.8  22628.18  9239.43  40.83
732.1  22547.20  9270.55  41.12
733.4  22493.78  9303.63  41.36
734.7  22430.29  9323.46  41.57
736.0  22412.65  9366.59  41.79
737.3  22354.35  9400.40  42.05
738.6  22392.88  9478.29  42.33
739.9  22486.41  9585.48  42.63
741.2  22557.99  9666.02  42.85
742.5  22690.46  9789.39  43.14
743.8  22954.18  9960.72  43.39
745.1  23356.68  10196.93  43.66
746.4  23838.13  10457.84  43.87
747.7  24340.83  10728.22  44.08
749.0  24845.90  10996.58  44.26
750.3  25109.11  11153.87  44.42
751.6  25056.94  11175.30  44.60
752.9  24812.33  11122.34  44.83
754.2  24511.78  11048.99  45.08
755.4  24190.11  10962.11  45.32
756.7  24095.29  10980.93  45.57
758.0  24119.44  11048.00  45.81
759.3  24282.67  11188.43  46.08
760.6  24509.10  11369.72  46.39
761.9  24709.31  11530.80  46.67
763.1  24854.26  11637.70  46.82
764.4  25021.13  11760.22  47.00
765.7  25148.50  11870.95  47.20
767.0  25255.87  11968.48  47.39
768.2  25351.20  12062.17  47.58
769.5  25424.49  12145.34  47.77
770.8  25570.26  12255.15  47.93
772.0  25587.81  12317.93  48.14
773.3  25669.17  12400.90  48.31
774.6  25760.75  12490.66  48.49
775.8  25826.13  12563.98  48.65
777.1  25851.30  12619.99  48.82
778.4  25836.83  12644.66  48.94
779.6  25861.37  12698.62  49.10
780.9  25820.00  12730.40  49.30
782.1  25728.02  12731.45  49.48
783.4  25750.40  12765.65  49.57
784.6  25767.74  12817.17  49.74
785.9  25975.04  12971.17  49.94
787.1  26352.59  13205.79  50.11
788.4  26662.70  13372.25  50.15
789.6  26677.46  13366.35  50.10
790.9  26422.83  13241.61  50.11
792.1  26144.60  13127.53  50.21
793.4  25865.12  13033.68  50.39
794.6  25676.57  12970.40  50.51
795.8  25513.36  12929.49  50.68
797.1  25350.08  12881.07  50.81
798.3  25228.50  12858.67  50.97
799.5  25169.97  12848.72  51.05
800.8  25099.23  12846.56  51.18
802.0  25011.42  12832.88  51.31
803.2  24918.76  12802.15  51.38
804.5  24860.18  12798.07  51.48
805.7  24781.04  12779.68  51.57
806.9  24699.71  12763.52  51.67
808.1  24647.73  12766.75  51.80
809.4  24609.13  12786.38  51.96
810.6  24558.63  12786.11  52.06
811.8  24538.32  12808.79  52.20
813.0  24560.28  12837.11  52.27
814.2  24583.06  12872.01  52.36
815.4  24644.79  12920.87  52.43
816.6  24675.27  12948.85  52.48
817.9  24704.84  12976.31  52.53
819.1  24672.89  12950.01  52.49
820.3  24583.02  12914.38  52.53
821.5  24511.70  12896.42  52.61
822.7  24474.49  12894.17  52.68
823.9  24466.74  12898.17  52.72
825.1  24483.13  12891.56  52.65
826.3  24493.16  12897.97  52.66
827.5  24511.03  12905.50  52.65
828.7  24560.16  12904.80  52.54
829.9  24556.61  12910.91  52.58
831.0  24631.50  12939.21  52.53
832.2  24684.15  12971.97  52.55
833.4  24732.69  12999.40  52.56
834.6  24771.09  13032.81  52.61
835.8  24806.25  13059.90  52.65
837.0  24848.21  13116.03  52.78
838.1  24942.61  13173.62  52.82
839.3  24987.97  13211.01  52.87
840.5  25056.73  13265.32  52.94
841.7  25139.84  13338.32  53.06
842.9  25202.72  13418.11  53.24
844.0  25272.39  13460.39  53.26
845.2  25356.92  13525.44  53.34
846.4  25406.55  13570.58  53.41
847.5  25535.27  13653.61  53.47
848.7  25649.51  13733.66  53.54
849.9  25759.43  13796.78  53.56
851.0  25787.85  13817.96  53.58
852.2  25836.49  13850.14  53.61
853.3  25835.02  13844.44  53.59
854.5  25803.13  13857.07  53.70
855.6  25784.28  13873.82  53.81
856.8  25811.14  13910.59  53.89
857.9  25796.36  13913.42  53.94
859.1  25866.40  13968.60  54.00
860.2  25870.46  13986.40  54.06
861.4  25883.89  14017.41  54.15
862.5  25913.95  14045.92  54.20
863.7  25967.63  14086.26  54.25
864.8  25978.23  14103.32  54.29
865.9  25934.02  14103.62  54.38
867.1  25972.57  14125.94  54.39
868.2  25960.64  14135.82  54.45
869.3  25983.57  14147.16  54.45
870.5  25945.69  14128.57  54.45
871.6  25952.82  14150.67  54.52
872.7  25988.86  14193.24  54.61
873.9  26010.48  14200.27  54.59
875.0  25998.57  14179.52  54.54
876.1  25976.68  14176.19  54.57
877.2  25992.15  14178.39  54.55
878.3  25997.76  14159.12  54.46
879.4  26016.59  14167.74  54.46
880.5  26032.32  14170.95  54.44
881.7  26038.68  14148.12  54.33
882.8  26051.76  14148.13  54.31
883.9  26088.59  14156.79  54.26
885.0  26049.66  14112.01  54.17
886.1  26068.54  14083.96  54.03
887.2  25979.14  14014.78  53.95
888.3  25929.87  13967.15  53.87
889.4  25867.81  13902.34  53.74
890.5  25830.84  13864.70  53.67
891.6  25777.28  13830.29  53.65
892.7  25812.52  13810.71  53.50
893.8  25792.32  13821.92  53.59
894.9  25833.34  13809.43  53.46
896.0  25797.95  13771.76  53.38
897.0  25823.30  13758.27  53.28
898.1  25837.83  13749.84  53.22
899.2  25853.12  13728.55  53.10
900.3  25827.20  13674.97  52.95
901.4  25755.93  13636.56  52.95
902.4  25796.28  13631.75  52.84
903.5  25760.57  13591.92  52.76
904.6  25773.48  13568.27  52.64
905.7  25786.56  13546.22  52.53
906.7  25778.44  13515.34  52.43
907.8  25791.16  13502.18  52.35
908.9  25756.23  13454.85  52.24
909.9  25738.83  13410.42  52.10
911.0  25715.27  13372.85  52.00
912.1  25708.69  13312.66  51.78
913.1  25683.06  13249.08  51.59
914.2  25568.28  13180.41  51.55
915.2  25594.38  13147.51  51.37
916.3  25582.28  13099.84  51.21
917.3  25579.53  13040.98  50.98
918.4  25529.08  12961.60  50.77
919.4  25526.52  12876.33  50.44
920.5  25540.93  12831.24  50.24
921.5  25532.64  12764.24  49.99
922.6  25509.72  12676.92  49.69
923.6  25552.64  12627.68  49.42
924.7  25558.13  12560.30  49.14
925.7  25559.01  12480.31  48.83
926.7  25571.07  12410.73  48.53
927.8  25622.74  12323.74  48.10
928.8  25737.00  12288.86  47.75
929.9  25798.01  12230.50  47.41
930.9  25912.02  12180.19  47.01
931.9  26063.45  12154.49  46.63
932.9  26272.00  12153.64  46.26
934.0  26311.65  12057.31  45.82
935.0  26328.00  11970.23  45.47
936.0  26313.67  11865.53  45.09
937.0  26305.79  11764.15  44.72
938.1  26273.03  11646.38  44.33
939.1  26282.27  11556.83  43.97
940.1  26307.38  11463.40  43.57
941.1  26474.98  11401.96  43.07
942.1  26613.43  11372.73  42.73
943.1  26709.35  11308.56  42.34
944.1  26891.46  11256.31  41.86
945.2  26931.87  11145.12  41.38
946.2  27005.05  11044.76  40.90
947.2  27050.94  10931.84  40.41
948.2  27161.01  10862.59  39.99
949.2  27258.97  10747.05  39.43
950.2  27257.00  10639.60  39.03
951.2  27381.90  10510.08  38.38
952.2  27427.92  10421.06  37.99
953.2  27549.11  10330.55  37.50
954.2  27670.16  10248.99  37.04
955.2  27683.23  10130.03  36.59
956.2  27678.04  10015.03  36.18
957.2  27683.31  9943.00  35.92
958.2  27771.67  9894.31  35.63
959.2  27855.45  9842.37  35.33
960.1  27895.78  9796.71  35.12
961.1  27947.74  9783.02  35.00
962.1  27921.09  9735.13  34.87
963.1  28038.72  9720.82  34.67
964.1  28081.62  9718.52  34.61
965.1  28159.91  9720.42  34.52
966.1  28230.04  9688.05  34.32
967.0  28291.66  9718.49  34.35
968.0  28354.15  9707.77  34.24
969.0  28355.00  9711.32  34.25
970.0  28440.42  9686.88  34.06
971.0  28447.07  9721.60  34.17
971.9  28529.94  9700.50  34.00
972.9  28619.85  9698.95  33.89
973.9  28640.46  9667.50  33.75
974.9  28629.25  9656.20  33.73
975.8  28737.28  9634.91  33.53
976.8  28722.61  9623.20  33.50
977.8  28846.97  9631.58  33.39
978.8  28789.28  9613.45  33.39
979.7  28914.30  9622.21  33.28
980.7  28909.16  9615.18  33.26
981.7  29108.19  9678.09  33.25
982.6  29310.11  9755.63  33.28
983.6  29612.62  9861.94  33.30
984.6  29886.86  9913.99  33.17
985.5  30220.02  10153.56  33.60
986.5  30590.42  10196.81  33.33
987.5  31346.01  10491.44  33.47
988.4  31956.65  10691.34  33.46
989.4  32957.10  10994.03  33.36
990.4  33646.09  11249.42  33.43
991.3  34254.92  11622.81  33.93
992.3  35605.12  11907.50  33.44
993.2  35791.00  12266.93  34.27
994.2  37066.33  12616.89  34.04
995.2  37769.29  12925.49  34.22
996.1  38356.88  12938.44  33.73
997.1  37945.80  12811.46  33.76
998.0  38542.50  12858.92  33.36
999.0  38301.25  13080.24  34.15
1000.0  38064.02  13175.53  34.61
1000.9  38955.51  13011.40  33.40
1001.9  38313.61  13298.27  34.71
1002.8  38469.11  12990.29  33.77
1003.8  38840.71  13063.28  33.63
1004.8  39018.78  12899.77  33.06
961.5  34418.44  11053.86  32.12
965.5  34203.70  10775.73  31.50
969.5  33124.73  10547.50  31.84
973.4  31599.68  10443.07  33.05
977.4  30418.99  10257.79  33.72
981.4  29806.10  10177.69  34.15
985.3  29606.90  10135.58  34.23
989.3  29665.19  10216.70  34.44
993.3  29713.32  10353.40  34.84
997.2  29668.74  10458.25  35.25
1001.2  29627.00  10585.34  35.73
1005.2  29568.23  10754.08  36.37
1009.1  29600.49  10957.08  37.02
1013.1  29702.49  11214.80  37.76
1017.1  29789.49  11479.14  38.53
1021.0  29789.99  11701.81  39.28
1025.0  29760.59  11916.33  40.04
1029.0  29636.30  12086.28  40.78
1032.9  29533.53  12285.65  41.60
1036.9  29509.70  12501.18  42.36
1040.9  29556.91  12743.42  43.11
1044.8  29679.34  13016.03  43.86
1048.8  29786.37  13247.67  44.48
1052.7  29868.84  13444.92  45.01
1056.7  29898.31  13593.73  45.47
1060.7  29913.73  13700.50  45.80
1064.6  29918.21  13785.89  46.08
1068.6  29859.11  13806.22  46.24
1072.5  29814.52  13784.78  46.24
1076.5  29798.83  13749.81  46.14
1080.4  29797.49  13677.37  45.90
1084.4  29858.05  13606.08  45.57
1088.3  29928.60  13512.88  45.15
1092.3  29919.24  13359.69  44.65
1096.2  29930.07  13188.98  44.07
1100.2  29956.02  13017.76  43.46
1104.1  29873.92  12806.03  42.87
1108.1  29858.25  12605.65  42.22
1112.0  29809.22  12374.12  41.51
1116.0  29674.06  12091.93  40.75
1119.9  29580.84  11766.25  39.78
1123.9  29636.88  11436.15  38.59
1127.8  29621.76  10967.04  37.02
1131.8  29615.13  10351.77  34.95
1135.7  29658.37  9663.37  32.58
1139.6  29649.41  8948.02  30.18
1143.6  29635.32  8297.14  28.00
1147.5  29635.02  7778.77  26.25
1151.4  29535.85  7366.34  24.94
1155.4  29547.88  7119.29  24.09
1159.3  29582.50  6973.85  23.57
1163.2  29498.44  6834.92  23.17
1167.2  29505.90  6762.58  22.92
1171.1  29517.01  6704.64  22.71
1175.0  29484.53  6648.37  22.55
1179.0  29486.15  6597.21  22.37
1182.9  29537.81  6564.73  22.22
1186.8  29538.86  6532.06  22.11
1190.7  29410.97  6467.70  21.99
1194.7  29255.48  6416.22  21.93
1198.6  29133.72  6383.69  21.91
1202.5  29044.69  6366.87  21.92
1206.4  28972.03  6367.17  21.98
1210.3  28920.11  6383.85  22.07
1214.2  28863.76  6404.81  22.19
1218.2  28763.18  6423.92  22.33
1222.1  28692.28  6458.30  22.51
1226.0  28656.56  6496.09  22.67
1229.9  28600.92  6533.84  22.84
1233.8  28545.33  6564.67  23.00
1237.7  28520.81  6591.70  23.11
1241.6  28465.46  6617.35  23.25
1245.5  28370.21  6633.11  23.38
1249.4  28299.76  6640.92  23.47
1253.3  28232.22  6652.54  23.56
1257.2  28191.00  6671.78  23.67
1261.1  28130.65  6664.03  23.69
1265.0  28057.45  6649.58  23.70
1268.9  27949.80  6611.13  23.65
1272.8  27989.85  6594.90  23.56
1276.7  28109.94  6596.08  23.47
1280.6  28175.48  6548.62  23.24
1284.5  28132.96  6457.54  22.95
1288.4  28112.11  6376.35  22.68
1292.3  28036.25  6265.42  22.35
1296.2  27954.20  6133.64  21.94
1300.1  27848.52  5983.55  21.49
1303.9  27706.57  5806.67  20.96
1307.8  27559.31  5621.44  20.40
1311.7  27397.23  5417.78  19.77
1315.6  27238.78  5211.33  19.13
1319.5  27066.08  4996.69  18.46
1323.3  26913.00  4781.06  17.76
1327.2  26776.06  4573.84  17.08
1331.1  26621.95  4364.36  16.39
1335.0  26429.02  4158.83  15.74
1338.8  26290.11  3986.16  15.16
1342.7  26169.42  3829.81  14.63
1346.5  25929.13  3666.70  14.14
1350.4  25728.90  3525.12  13.70
1354.3  25457.85  3381.04  13.28
1358.1  25158.95  3242.30  12.89
1362.0  24980.59  3120.45  12.49
1365.8  24927.82  3006.83  12.06
1369.7  24996.19  2893.18  11.57
1373.5  24961.93  2737.34  10.97
1377.4  24802.90  2551.03  10.29
1381.2  24660.90  2329.95  9.45
1385.1  24643.85  2124.31  8.62
1389.0  24592.75  1929.59  7.85
1392.8  24461.78  1745.47  7.14
1396.6  24365.22  1595.09  6.55
1400.5  24231.60  1460.00  6.03
1404.3  24125.27  1353.79  5.61
1408.2  24097.32  1285.35  5.33
1412.0  24070.61  1224.91  5.09
1415.8  24101.54  1177.59  4.89
1419.6  24084.23  1144.05  4.75
1423.5  24070.46  1118.63  4.65
1427.3  24053.34  1101.98  4.58
1431.1  24042.83  1087.33  4.52
1434.9  23983.10  1075.24  4.48
1438.8  23944.05  1064.90  4.45
1442.6  23927.04  1052.45  4.40
1446.4  23856.75  1041.86  4.37
1450.2  23800.39  1037.93  4.36
1454.0  23730.24  1032.84  4.35
1457.8  23714.21  1034.21  4.36
1461.6  23699.02  1033.76  4.36
1465.4  23623.88  1034.51  4.38
1469.2  23507.58  1040.43  4.43
1473.0  23416.67  1051.98  4.49
1476.8  23385.95  1066.86  4.56
1480.7  23341.52  1082.53  4.64
1484.4  23269.68  1105.04  4.75
1488.2  23205.84  1132.40  4.88
1492.0  23119.76  1162.02  5.03
1495.8  23050.30  1187.55  5.15
1499.6  22974.60  1203.31  5.24
1503.4  22886.86  1213.40  5.30
1507.2  22817.82  1217.20  5.33
1510.9  22736.47  1224.61  5.39
1514.7  22640.13  1238.98  5.47
1518.5  22563.41  1249.46  5.54
1522.3  22469.97  1260.31  5.61
1526.0  22400.45  1277.01  5.70
1529.8  22366.84  1297.15  5.80
1533.6  22289.14  1314.50  5.90
1537.3  22206.85  1333.36  6.00
1541.1  22117.21  1359.30  6.15
1544.8  22039.20  1380.80  6.27
1548.6  21965.35  1400.73  6.38
1552.4  21895.60  1419.59  6.48
1556.1  21841.83  1434.75  6.57
1559.9  21787.79  1454.75  6.68
1563.6  21716.01  1468.44  6.76
1567.3  21641.45  1488.97  6.88
1571.1  21503.94  1509.22  7.02
1574.8  21413.78  1532.46  7.16
1578.6  21355.88  1555.38  7.28
1582.3  21274.05  1568.78  7.37
1586.0  21183.04  1577.37  7.45
1589.8  21100.62  1582.35  7.50
1593.5  21000.69  1587.72  7.56
1597.2  20929.52  1597.47  7.63
1600.9  20843.62  1604.41  7.70
1604.7  20745.10  1611.61  7.77
1608.4  20669.95  1621.64  7.85
1612.1  20567.28  1627.63  7.91
1615.8  20477.47  1635.28  7.99
1619.5  20422.34  1647.64  8.07
1623.2  20328.29  1656.00  8.15
1626.9  20221.28  1661.49  8.22
1630.6  20112.62  1665.77  8.28
1634.3  20025.88  1668.42  8.33
1638.0  19934.15  1667.61  8.37
1641.7  19830.91  1669.39  8.42
1645.4  19716.98  1668.62  8.46
1649.1  19602.77  1660.35  8.47
1652.8  19509.95  1657.60  8.50
1656.4  19395.62  1649.55  8.50
1660.1  19295.18  1639.23  8.50
1663.8  19185.10  1631.32  8.50
1667.5  19083.74  1623.70  8.51
1671.1  18996.35  1612.62  8.49
1674.8  18876.30  1603.55  8.50
1678.5  18838.56  1596.17  8.47
1682.1  18849.73  1584.86  8.41
1685.8  18859.30  1576.51  8.36
1689.5  18795.30  1565.88  8.33
1693.1  18706.41  1553.93  8.31
1696.8  18615.25  1539.00  8.27
1700.4  18529.58  1522.89  8.22
1704.0  18456.67  1504.57  8.15
1707.7  18296.86  1479.76  8.09
1711.3  18114.51  1450.69  8.01
1715.0  17992.28  1423.44  7.91
1718.6  17886.14  1401.66  7.84
1722.2  17799.94  1373.36  7.72
1725.9  17706.59  1352.08  7.64
1729.5  17604.49  1337.42  7.60
1733.1  17541.49  1321.05  7.53
1736.7  17471.92  1308.25  7.49
1740.3  17366.15  1286.92  7.41
1744.0  17315.89  1269.08  7.33
1747.5  17227.16  1248.90  7.25
1751.2  17088.52  1226.36  7.18
1754.8  16976.43  1201.25  7.08
1758.4  16893.02  1177.70  6.97
1762.0  16789.89  1162.65  6.92
1765.5  16699.11  1150.70  6.89
1769.1  16665.60  1140.80  6.85
1772.7  16620.17  1125.76  6.77
1776.3  16550.18  1112.44  6.72
1779.9  16477.44  1101.76  6.69
1783.5  16434.96  1093.68  6.65
1787.0  16345.96  1079.57  6.60
1790.6  16243.66  1068.01  6.57
1794.2  16171.99  1065.97  6.59
1797.8  16109.35  1059.76  6.58
1801.3  16053.66  1055.71  6.58
1804.9  15954.75  1048.25  6.57
1808.4  15901.90  1044.47  6.57
1812.0  15801.30  1038.04  6.57
1815.5  15695.88  1028.60  6.55
1819.1  15574.16  1025.02  6.58
1822.6  15471.85  1017.80  6.58
1826.2  15387.58  1006.07  6.54
1829.7  15274.18  998.67  6.54
1833.2  15120.13  982.70  6.50
1836.8  14969.50  967.18  6.46
1840.3  14877.77  957.03  6.43
1843.8  14800.45  948.97  6.41
1847.3  14738.02  942.68  6.40
1850.8  14668.42  931.39  6.35
1854.3  14577.15  923.95  6.34
1857.8  14534.00  892.67  6.14
1861.3  14522.25  851.69  5.86
1864.8  14459.04  821.13  5.68
1868.3  14308.06  766.33  5.36
1871.8  14215.68  714.24  5.02
1875.3  14201.46  665.21  4.68
1878.8  14176.42  621.30  4.38
1882.3  14122.90  584.87  4.14
1885.8  14014.10  543.43  3.88
1889.3  13904.45  500.46  3.60
1892.7  13776.82  475.17  3.45
1896.2  13660.15  488.78  3.58
1899.7  13554.20  502.41  3.71
1903.1  13466.38  491.57  3.65
1906.6  13511.57  502.81  3.72
1910.0  13676.29  549.00  4.01
1913.5  13920.50  603.22  4.33
1917.0  14289.98  726.19  5.08
1920.4  14838.23  924.50  6.23
1923.8  14900.33  921.11  6.18
1871.2  12934.73  511.29  3.95
1873.9  13036.34  533.34  4.09
1876.7  13080.35  542.52  4.15
1879.5  13184.92  463.46  3.52
1882.3  12973.16  436.05  3.36
1885.1  12955.86  413.76  3.19
1887.8  13054.47  390.34  2.99
1890.6  12965.86  413.22  3.19
1893.4  12899.33  425.33  3.30
1896.2  12776.85  387.39  3.03
1898.9  12763.16  393.96  3.09
1901.7  12667.81  391.89  3.09
1904.5  12785.93  368.54  2.88
1907.2  12706.25  395.83  3.12
1910.0  12637.10  394.86  3.12
1912.7  12646.53  364.30  2.88
1915.5  12573.30  357.52  2.84
1918.2  12524.17  354.26  2.83
1921.0  12429.58  342.69  2.76
1923.7  12476.24  366.85  2.94
1926.5  12456.75  366.92  2.95
1929.2  12429.04  342.05  2.75
1932.0  12425.12  361.29  2.91
1934.7  12406.61  365.82  2.95
1937.4  12332.23  353.59  2.87
1940.2  12287.19  361.63  2.94
1942.9  12341.39  357.28  2.90
1945.6  12357.84  343.27  2.78
1948.3  12310.10  342.95  2.79
1951.1  12286.82  364.21  2.96
1953.8  12285.00  357.00  2.91
1956.5  12213.61  334.44  2.74
1959.2  12244.05  349.83  2.86
1961.9  12277.60  349.65  2.85
1964.6  12227.25  352.05  2.88
1967.3  12243.43  372.81  3.04
1970.0  12130.08  345.33  2.85
1972.8  12063.78  349.08  2.89
1975.5  12116.40  366.81  3.03
1978.2  12077.12  355.27  2.94
1980.9  11995.23  371.18  3.09
1983.5  11947.43  365.48  3.06
1986.2  11960.10  351.14  2.94
1988.9  11951.37  365.69  3.06
1991.6  11858.95  372.70  3.14
1994.3  11764.18  371.63  3.16
1997.0  11766.88  365.22  3.10
1999.7  11773.83  363.74  3.09
2002.3  11759.81  376.84  3.20
2005.0  11690.77  373.97  3.20
2007.7  11638.67  375.53  3.23
2010.4  11594.16  371.15  3.20
2013.0  11562.08  385.03  3.33
2015.7  11497.38  378.89  3.30
2018.4  11428.93  360.25  3.15
2021.0  11415.50  387.22  3.39
2023.7  11337.76  378.77  3.34
2026.4  11289.20  377.43  3.34
2029.0  11241.04  390.82  3.48
2031.7  11159.63  371.80  3.33
2034.3  11170.90  379.31  3.40
2037.0  11088.29  394.10  3.55
2039.6  11036.71  384.49  3.48
2042.3  11025.52  363.21  3.29
2044.9  10984.38  372.13  3.39
2047.5  10945.11  385.22  3.52
2050.2  10866.80  377.07  3.47
2052.8  10875.20  381.73  3.51
2055.4  10794.82  384.76  3.56
2058.1  10693.20  379.87  3.55
2060.7  10690.88  390.37  3.65
2063.3  10636.71  394.78  3.71
2065.9  10588.79  383.39  3.62
2068.6  10527.38  389.90  3.70
2071.2  10509.93  391.53  3.73
2073.8  10479.76  377.78  3.60
2076.4  10429.57  390.13  3.74
2079.0  10413.86  405.58  3.89
2081.6  10426.21  390.11  3.74
2084.2  10409.13  389.39  3.74
2086.8  10317.76  394.08  3.82
2089.4  10237.53  387.68  3.79
2092.1  10185.83  400.44  3.93
2094.7  10161.53  403.03  3.97
2097.2  10134.83  383.44  3.78
2099.8  10154.06  377.66  3.72
2102.4  10079.62  390.49  3.87
2105.0  9975.00  399.95  4.01
2107.6  9943.53  395.92  3.98
2110.2  9903.21  391.20  3.95
2112.8  9887.09  409.45  4.14
2115.3  9921.47  418.57  4.22
2117.9  9932.41  405.27  4.08
2120.5  9899.34  402.27  4.06
2123.1  9860.18  407.55  4.13
2125.6  9830.42  411.92  4.19
2128.2  9760.43  405.83  4.16
2130.8  9696.38  407.55  4.20
2133.3  9680.00  408.71  4.22
2135.9  9631.02  394.18  4.09
2138.4  9558.99  402.71  4.21
2141.0  9487.88  402.55  4.24
2143.6  9445.83  389.91  4.13
2146.1  9343.90  398.63  4.27
2148.7  9250.50  391.55  4.23
2151.2  9289.87  371.56  4.00
2153.8  9283.27  400.30  4.31
2156.3  9196.68  402.64  4.38
2158.8  9167.15  378.03  4.12
2161.4  9136.89  396.06  4.33
2163.9  9080.87  405.89  4.47
2166.4  9038.53  388.31  4.30
2169.0  9026.70  379.44  4.20
2171.5  8964.61  385.35  4.30
2174.0  8877.40  387.74  4.37
2176.5  8859.37  409.63  4.62
2179.1  8821.17  398.54  4.52
2181.6  8799.54  378.18  4.30
2184.1  8784.16  389.11  4.43
2186.6  8784.20  383.92  4.37
2189.1  8744.04  367.01  4.20
2191.6  8708.93  363.69  4.18
2194.1  8706.09  377.56  4.34
2196.6  8712.45  363.44  4.17
2199.2  8755.72  366.27  4.18
2201.7  8703.45  382.05  4.39
2204.1  8678.72  381.16  4.39
2206.6  8675.98  368.03  4.24
2209.1  8675.22  365.88  4.22
2211.6  8663.97  381.94  4.41
2214.1  8610.78  387.77  4.50
2216.6  8633.61  377.30  4.37
2219.1  8660.20  365.91  4.23
2221.6  8580.23  373.05  4.35
2224.0  8522.97  377.19  4.43
2226.5  8511.79  370.36  4.35
2229.0  8530.74  370.52  4.34
2231.5  8441.32  368.96  4.37
2233.9  8443.24  355.33  4.21
2236.4  8476.56  362.84  4.28
2238.9  8385.50  352.63  4.21
2241.3  8391.31  334.25  3.98
2243.8  8383.54  344.62  4.11
2246.2  8253.42  347.61  4.21
2248.7  8237.84  341.96  4.15
2251.2  8236.26  330.53  4.01
2253.6  8194.56  336.64  4.11
2256.1  8190.72  328.96  4.02
2258.5  8190.43  335.51  4.10
2260.9  8134.04  327.26  4.02
2263.4  8110.40  303.23  3.74
2265.8  8131.85  341.07  4.19
2268.3  8069.96  343.78  4.26
2270.7  8098.88  308.35  3.81
2273.1  8065.01  302.97  3.76
2275.6  8029.44  307.20  3.83
2278.0  8032.57  299.78  3.73
2280.4  8050.71  297.61  3.70
2282.8  7960.15  280.05  3.52
2285.3  7901.09  285.14  3.61
2287.7  7985.73  322.81  4.04
2290.1  7946.20  299.14  3.76
2292.5  7920.79  268.53  3.39
2294.9  7927.04  293.74  3.71
2297.3  7846.72  297.95  3.80
2299.7  7809.80  285.60  3.66
2302.1  7774.17  288.08  3.71
2304.5  7698.88  283.55  3.68
2306.9  7651.84  262.64  3.43
2309.3  7605.49  262.53  3.45
2311.7  7551.70  262.98  3.48
2314.1  7431.64  257.30  3.46
2316.5  7403.26  277.11  3.74
2318.9  7422.16  264.09  3.56
2321.3  7384.55  244.30  3.31
2323.7  7411.63  268.88  3.63
2326.1  7407.14  253.89  3.43
2328.4  7416.57  242.74  3.27
2330.8  7456.07  271.30  3.64
2333.2  7380.05  252.59  3.42
2335.6  7348.45  254.64  3.47
2337.9  7374.28  267.09  3.62
2340.3  7351.28  246.31  3.35
2342.7  7303.86  235.56  3.23
2345.0  7304.27  251.97  3.45
2347.4  7310.00  256.42  3.51
2349.7  7167.86  236.37  3.30
2352.1  7105.77  237.29  3.34
2354.4  7122.34  246.44  3.46
2356.8  7109.55  228.78  3.22
2359.2  7054.67  232.55  3.30
2361.5  7016.24  222.53  3.17
2363.8  7061.80  204.94  2.90
2366.2  7030.44  245.68  3.49
2368.5  6995.40  249.20  3.56
2370.9  6987.35  216.21  3.09
2373.2  6974.33  221.84  3.18
2375.5  6914.20  235.30  3.40
2377.9  6855.73  229.44  3.35
2380.2  6895.41  215.34  3.12
2382.5  6832.77  223.63  3.27
2384.8  6779.04  224.27  3.31
2387.2  6826.21  226.60  3.32
2389.5  6803.92  217.20  3.19
2391.8  6773.50  209.15  3.09
2394.1  6708.07  215.93  3.22
2396.4  6696.25  196.76  2.94
2398.7  6727.77  202.99  3.02
2401.0  6675.75  204.39  3.06
2403.3  6633.36  200.86  3.03
2405.6  6587.80  191.60  2.91
2407.9  6548.07  190.38  2.91
2410.2  6522.35  223.93  3.43
2412.5  6494.37  208.35  3.21
2414.8  6495.78  188.28  2.90
2417.1  6477.89  199.59  3.08
2419.4  6418.72  178.88  2.79
2421.7  6381.59  198.00  3.10
2424.0  6340.00  200.76  3.17
2426.2  6377.20  164.07  2.57
2428.5  6376.43  207.32  3.25
2430.8  6305.65  225.27  3.57
2433.1  6272.91  173.33  2.76
2435.4  6216.05  175.31  2.82
2437.6  6193.67  164.12  2.65
2439.9  6131.58  172.19  2.81
2442.2  6143.40  189.61  3.09
2444.4  6156.85  162.73  2.64
2446.7  6096.96  161.57  2.65
2448.9  6140.77  173.70  2.83
2451.2  6097.08  168.87  2.77
2453.4  6044.75  124.55  2.06
2455.7  6045.18  137.85  2.28
2457.9  5958.48  179.08  3.01
2460.2  5967.72  162.35  2.72
2462.4  5959.20  187.20  3.14
2464.7  5866.75  174.53  2.97
2466.9  5842.20  145.52  2.49
2469.2  5878.87  164.20  2.79
2471.4  5796.90  175.07  3.02
2473.6  5704.14  158.45  2.78
2475.9  5730.24  158.05  2.76
2478.1  5690.78  152.57  2.68
2480.3  5611.10  160.12  2.85
2482.5  5590.00  181.09  3.24
2484.8  5592.32  155.35  2.78
2487.0  5577.22  165.41  2.97
2489.2  5540.68  170.87  3.08
2491.4  5525.52  143.46  2.60
2493.6  5479.00  99.28  1.81
2495.8  5487.41  129.34  2.36
2498.0  5504.43  170.24  3.09
2500.2  5484.68  109.53  2.00
2502.4  5700.96  162.80  2.86
2504.6  5765.46  175.28  3.04
2506.8  5747.58  116.90  2.03
