/*** Spectra Vista SIG Data ***/
name= S2.sig
comm= SIG file reprocesed for matching/overlap;Averaged Ref/Tar of files: GD3S4,GD3S5,GD3S6
data=
346.4  598.78  176.03  29.40
347.9  627.50  174.65  27.83
349.5  677.04  178.78  26.41
351.1  739.44  179.09  24.22
352.6  790.63  186.69  23.61
354.2  841.03  194.39  23.11
355.7  912.59  204.86  22.45
357.3  974.37  208.63  21.41
358.8  992.58  215.88  21.75
360.4  1062.29  218.55  20.57
361.9  1117.88  221.02  19.77
363.5  1149.55  217.56  18.93
365.1  1196.29  226.89  18.97
366.6  1260.16  233.62  18.54
368.2  1349.72  226.85  16.81
369.7  1403.95  228.11  16.25
371.3  1488.21  236.73  15.91
372.8  1577.00  236.16  14.98
374.4  1638.71  246.09  15.02
375.9  1688.10  245.82  14.56
377.4  1740.09  247.41  14.22
379.0  1788.57  245.80  13.74
380.5  1855.73  241.59  13.02
382.1  1905.98  248.71  13.05
383.6  1973.16  243.53  12.34
385.2  2065.25  245.67  11.90
386.7  2149.76  253.60  11.80
388.3  2271.83  259.34  11.42
389.8  2363.45  267.82  11.33
391.3  2453.59  277.29  11.30
392.9  2526.36  286.30  11.33
394.4  2602.50  302.39  11.62
395.9  2690.98  315.57  11.73
397.5  2829.48  330.00  11.66
399.0  2963.31  327.64  11.06
400.6  3033.76  326.68  10.77
402.1  3072.78  323.10  10.51
403.6  3116.75  320.55  10.28
405.1  3199.00  320.66  10.02
406.7  3304.00  327.64  9.92
408.2  3412.53  339.70  9.95
409.7  3521.28  352.58  10.01
411.3  3642.17  370.64  10.18
412.8  3732.75  382.12  10.24
414.3  3845.02  398.29  10.36
415.8  3965.00  413.58  10.43
417.4  4085.95  431.96  10.57
418.9  4192.21  443.17  10.57
420.4  4267.16  443.83  10.40
421.9  4346.32  455.36  10.48
423.5  4413.15  463.03  10.49
425.0  4492.75  466.66  10.39
426.5  4594.55  471.71  10.27
428.0  4712.54  478.37  10.15
429.5  4856.53  488.75  10.06
431.1  5025.20  501.04  9.97
432.6  5198.44  521.00  10.02
434.1  5370.75  536.56  9.99
435.6  5520.56  550.90  9.98
437.1  5670.60  568.82  10.03
438.6  5806.58  581.84  10.02
440.1  5943.54  601.49  10.12
441.6  6091.61  614.77  10.09
443.1  6230.93  642.40  10.31
444.7  6356.12  664.79  10.46
446.2  6474.98  692.26  10.69
447.7  6582.53  715.64  10.87
449.2  6691.68  734.76  10.98
450.7  6814.08  755.73  11.09
452.2  6930.56  777.49  11.22
453.7  7066.33  802.61  11.36
455.2  7233.85  829.53  11.47
456.7  7443.04  859.88  11.55
458.2  7673.27  893.61  11.65
459.7  7920.50  925.40  11.68
461.2  8156.07  960.87  11.78
462.7  8366.46  991.72  11.85
464.2  8568.06  1018.09  11.88
465.7  8788.58  1047.46  11.92
467.2  8970.50  1075.88  11.99
468.7  9176.00  1107.60  12.07
470.2  9305.26  1143.70  12.29
471.7  9490.50  1173.25  12.36
473.2  9788.42  1193.63  12.19
474.6  10042.30  1212.48  12.07
476.1  10127.24  1232.64  12.17
477.6  10169.21  1250.45  12.30
479.1  10224.56  1259.75  12.32
480.6  10293.47  1275.69  12.39
482.1  10426.95  1296.67  12.44
483.6  10590.11  1323.11  12.49
485.1  10796.39  1354.86  12.55
486.6  11041.55  1395.27  12.64
488.0  11290.50  1441.32  12.77
489.5  11568.25  1501.20  12.98
491.0  11840.59  1563.11  13.20
492.5  12119.22  1632.74  13.47
494.0  12409.65  1710.10  13.78
495.4  12660.45  1793.88  14.17
496.9  12912.44  1884.77  14.60
498.4  13155.80  1980.51  15.05
499.9  13408.52  2098.67  15.65
501.4  13645.90  2217.55  16.25
502.8  13864.50  2349.74  16.95
504.3  14081.40  2485.98  17.65
505.8  14291.05  2638.85  18.47
507.2  14436.37  2785.97  19.30
508.7  14548.87  2944.58  20.24
510.2  14651.50  3100.92  21.16
511.6  14718.08  3258.04  22.14
513.1  14838.45  3430.21  23.12
514.6  14986.45  3613.85  24.11
516.0  15112.04  3798.39  25.13
517.5  15305.31  4005.76  26.17
519.0  15537.89  4227.90  27.21
520.5  15768.60  4451.94  28.23
521.9  16045.99  4689.42  29.22
523.4  16363.11  4942.96  30.21
524.8  16675.79  5189.03  31.12
526.3  17027.53  5440.47  31.95
527.8  17380.80  5690.08  32.74
529.2  17706.86  5918.31  33.42
530.7  18056.71  6152.96  34.08
532.1  18377.28  6368.54  34.65
533.6  18738.23  6589.48  35.17
535.0  19114.67  6812.42  35.64
536.5  19476.07  7025.86  36.07
538.0  19846.24  7238.31  36.47
539.4  20198.95  7438.62  36.83
540.9  20626.19  7649.90  37.09
542.3  20984.92  7833.26  37.33
543.8  21250.33  7983.79  37.57
545.2  21329.19  8085.54  37.91
546.6  21331.64  8156.28  38.24
548.1  21362.06  8225.92  38.51
549.5  21376.46  8287.68  38.77
551.0  21386.66  8338.01  38.99
552.4  21443.54  8394.86  39.15
553.9  21463.89  8431.85  39.28
555.3  21521.57  8472.73  39.37
556.8  21650.10  8526.38  39.38
558.2  21773.81  8578.29  39.40
559.6  21936.94  8632.33  39.35
561.1  22168.25  8708.32  39.28
562.5  22423.78  8783.62  39.17
564.0  22757.43  8884.88  39.04
565.4  23059.14  8962.67  38.87
566.8  23449.52  9055.66  38.62
568.3  23818.66  9131.09  38.34
569.7  24198.01  9201.50  38.03
571.1  24579.14  9255.97  37.66
572.6  24952.86  9307.01  37.30
574.0  25317.60  9351.76  36.94
575.4  25678.69  9390.32  36.57
576.9  26008.29  9424.39  36.24
578.3  26306.64  9452.36  35.93
579.7  26593.28  9482.08  35.66
581.1  26823.10  9494.76  35.40
582.6  27065.10  9514.52  35.15
584.0  27286.52  9525.44  34.91
585.4  27587.92  9559.94  34.65
586.8  27978.96  9617.72  34.37
588.3  28419.30  9692.98  34.11
589.7  28786.68  9755.38  33.89
591.1  29016.81  9782.65  33.71
592.5  29127.43  9778.98  33.57
594.0  29186.34  9760.82  33.44
595.4  29194.56  9726.07  33.31
596.8  29193.45  9690.90  33.20
598.2  29177.08  9646.22  33.06
599.6  29153.88  9593.76  32.91
601.0  29216.28  9558.25  32.72
602.4  29261.60  9510.75  32.50
603.9  29364.60  9470.85  32.25
605.3  29484.10  9428.48  31.98
606.7  29584.80  9373.68  31.68
608.1  29785.49  9343.22  31.37
609.5  30013.28  9314.23  31.03
610.9  30296.78  9295.87  30.68
612.3  30557.28  9264.52  30.32
613.7  30914.00  9253.75  29.93
615.1  31159.08  9199.66  29.52
616.5  31406.64  9160.96  29.17
617.9  31801.61  9177.46  28.86
619.3  32170.62  9203.45  28.61
620.7  32635.92  9266.60  28.39
622.1  33083.75  9329.07  28.20
623.5  33564.04  9415.54  28.05
624.9  34116.86  9527.56  27.93
626.3  34490.69  9601.59  27.84
627.7  34145.81  9479.36  27.76
629.1  33851.16  9369.59  27.68
630.5  33743.57  9308.44  27.59
631.9  33775.53  9274.16  27.46
633.3  33808.52  9211.95  27.25
634.7  33992.91  9150.98  26.92
636.1  34075.08  9031.04  26.50
637.5  34196.58  8961.53  26.21
638.9  34374.61  8934.80  25.99
640.2  34545.58  8900.41  25.76
641.6  34634.34  8834.83  25.51
643.0  34657.83  8728.66  25.19
644.4  34696.37  8619.13  24.84
645.8  34653.86  8474.15  24.45
647.2  34834.41  8379.40  24.05
648.5  34958.93  8277.10  23.68
649.9  34861.32  8124.76  23.31
651.3  34789.65  8005.22  23.01
652.7  34680.00  7867.01  22.68
654.1  34452.30  7589.43  22.03
655.5  34172.42  7270.48  21.28
656.8  33904.63  6967.43  20.55
658.2  34070.04  6762.07  19.85
659.6  34442.82  6607.23  19.18
660.9  34748.70  6439.42  18.53
662.3  35067.95  6259.47  17.85
663.7  35364.00  6083.35  17.20
665.0  35617.00  5907.98  16.59
666.4  35877.31  5760.39  16.06
667.8  36209.10  5645.63  15.59
669.1  36482.80  5540.66  15.19
670.5  36799.72  5474.72  14.88
671.9  36995.40  5421.98  14.66
673.2  37270.13  5410.59  14.52
674.6  37530.47  5416.50  14.43
676.0  37841.78  5462.28  14.43
677.3  38141.57  5539.25  14.52
678.7  38483.75  5662.06  14.71
680.0  38922.37  5845.43  15.02
681.4  39389.45  6104.11  15.50
682.8  39844.35  6456.00  16.20
684.1  40287.78  6910.88  17.15
685.5  40705.56  7488.84  18.40
686.8  41091.84  8180.24  19.91
688.2  41433.89  8987.90  21.69
689.5  41549.57  9861.63  23.73
690.9  41633.44  10825.88  26.00
692.2  41697.60  11859.12  28.44
693.6  41771.65  12958.09  31.02
694.9  41721.88  14049.96  33.68
696.2  41751.90  15168.96  36.33
697.6  41766.04  16274.49  38.97
698.9  41796.48  17365.04  41.55
700.3  41844.24  18424.69  44.03
701.6  41918.48  19442.78  46.38
703.0  41979.40  20391.65  48.58
704.3  41981.71  21241.97  50.60
705.6  41967.18  22041.19  52.52
707.0  41980.75  22791.70  54.29
708.3  41872.71  23433.79  55.96
709.6  41753.67  24040.45  57.58
711.0  41589.99  24544.10  59.01
712.3  41418.66  25016.92  60.40
713.6  41354.04  25502.44  61.67
714.9  41240.96  25924.25  62.86
716.3  41218.54  26362.89  63.96
717.6  41221.95  26796.42  65.01
718.9  41134.56  27101.48  65.88
720.2  40936.00  27314.55  66.73
721.6  40765.66  27528.13  67.53
722.9  40572.15  27711.21  68.30
724.2  40305.71  27824.16  69.03
725.5  40134.57  27963.50  69.67
726.8  39960.91  28061.10  70.22
728.1  39855.98  28190.13  70.73
729.5  39766.23  28292.40  71.15
730.8  39707.44  28402.30  71.53
732.1  39612.07  28478.67  71.89
733.4  39556.45  28562.15  72.21
734.7  39507.57  28627.46  72.46
736.0  39511.29  28730.30  72.71
737.3  39463.58  28796.89  72.97
738.6  39569.04  28981.39  73.24
739.9  39770.92  29223.95  73.48
741.2  39928.98  29434.50  73.72
742.5  40206.42  29732.49  73.95
743.8  40696.43  30186.99  74.18
745.1  41398.16  30804.91  74.41
746.4  42245.84  31483.30  74.52
747.7  43136.62  32143.21  74.51
749.0  43980.49  32763.13  74.49
750.3  44484.44  33059.79  74.32
751.6  44396.66  32967.10  74.26
752.9  43969.12  32668.86  74.30
754.2  43470.53  32351.12  74.42
755.4  42928.75  32026.75  74.60
756.7  42746.48  31987.74  74.83
758.0  42774.71  32095.96  75.03
759.3  43048.01  32395.02  75.25
760.6  43418.76  32757.55  75.45
761.9  43775.94  33093.82  75.60
763.1  43996.61  33282.26  75.65
764.4  44239.34  33501.46  75.73
765.7  44424.25  33668.27  75.79
767.0  44583.75  33806.81  75.83
768.2  44688.00  33932.98  75.93
769.5  44782.92  34027.48  75.98
770.8  44990.42  34196.64  76.01
772.0  45014.41  34252.15  76.09
773.3  45100.97  34340.40  76.14
774.6  45226.84  34452.70  76.18
775.8  45313.45  34518.43  76.18
777.1  45344.81  34542.29  76.18
778.4  45245.88  34504.67  76.26
779.6  45226.44  34512.47  76.31
780.9  45132.00  34481.20  76.40
782.1  44952.26  34388.06  76.50
783.4  44936.32  34401.95  76.56
784.6  44935.72  34452.15  76.67
785.9  45255.62  34751.73  76.79
787.1  45836.93  35255.72  76.92
788.4  46288.94  35538.61  76.78
789.6  46219.23  35357.79  76.50
790.9  45788.99  34910.86  76.24
792.1  45296.16  34542.59  76.26
793.4  44771.54  34212.22  76.42
794.6  44415.30  33955.34  76.45
795.8  44134.47  33751.14  76.47
797.1  43801.05  33523.16  76.54
798.3  43569.08  33391.92  76.64
799.5  43411.48  33310.17  76.73
800.8  43273.13  33194.44  76.71
802.0  43071.08  33087.00  76.82
803.2  42890.28  32940.86  76.80
804.5  42742.15  32845.26  76.85
805.7  42601.95  32716.82  76.80
806.9  42426.40  32591.16  76.82
808.1  42305.67  32528.12  76.89
809.4  42221.44  32469.60  76.90
810.6  42105.70  32406.77  76.97
811.8  42062.43  32385.65  76.99
813.0  42071.08  32404.85  77.02
814.2  42081.20  32440.70  77.09
815.4  42185.03  32505.28  77.05
816.6  42225.34  32510.78  76.99
817.9  42273.21  32494.87  76.87
819.1  42166.58  32389.55  76.81
820.3  42039.03  32242.76  76.70
821.5  41905.07  32121.48  76.65
822.7  41849.58  32057.33  76.60
823.9  41838.35  31999.17  76.48
825.1  41851.34  31963.80  76.37
826.3  41890.94  31939.07  76.24
827.5  41937.05  31919.06  76.11
828.7  42011.28  31885.95  75.90
829.9  42039.57  31861.18  75.79
831.0  42140.75  31877.51  75.65
832.2  42235.78  31894.17  75.51
833.4  42305.18  31919.25  75.45
834.6  42417.19  31962.50  75.35
835.8  42496.65  31996.28  75.29
837.0  42597.61  32080.19  75.31
838.1  42745.68  32194.55  75.32
839.3  42856.00  32263.59  75.28
840.5  42989.60  32361.67  75.28
841.7  43156.80  32496.64  75.30
842.9  43298.86  32634.77  75.37
844.0  43430.88  32737.52  75.38
845.2  43568.90  32871.82  75.45
846.4  43732.15  32975.33  75.40
847.5  43960.00  33158.66  75.43
848.7  44164.79  33302.98  75.41
849.9  44393.85  33429.13  75.30
851.0  44478.08  33456.47  75.22
852.2  44569.63  33504.29  75.17
853.3  44562.81  33465.98  75.10
854.5  44594.90  33453.96  75.02
855.6  44615.97  33467.91  75.01
856.8  44687.86  33516.20  75.00
857.9  44681.40  33509.21  75.00
859.1  44832.20  33617.64  74.99
860.2  44876.88  33629.40  74.94
861.4  44954.55  33683.23  74.93
862.5  45021.69  33727.52  74.91
863.7  45150.84  33810.69  74.88
864.8  45213.35  33825.67  74.81
865.9  45167.77  33807.00  74.85
867.1  45241.43  33837.61  74.79
868.2  45295.54  33839.67  74.71
869.3  45314.27  33852.24  74.71
870.5  45282.48  33781.74  74.60
871.6  45315.83  33792.86  74.57
872.7  45413.27  33862.01  74.56
873.9  45478.16  33859.61  74.45
875.0  45456.71  33815.72  74.39
876.1  45452.45  33792.66  74.35
877.2  45498.99  33793.06  74.27
878.3  45519.98  33773.19  74.19
879.4  45563.53  33769.61  74.12
880.5  45631.08  33761.70  73.99
881.7  45596.20  33718.88  73.95
882.8  45693.96  33683.22  73.71
883.9  45722.91  33659.16  73.62
885.0  45675.63  33563.48  73.48
886.1  45712.78  33479.75  73.24
887.2  45537.58  33295.45  73.12
888.3  45475.07  33150.25  72.90
889.4  45347.40  33005.23  72.78
890.5  45259.13  32888.06  72.67
891.6  45193.70  32811.83  72.60
892.7  45201.31  32754.97  72.46
893.8  45270.56  32736.59  72.31
894.9  45248.28  32714.01  72.30
896.0  45235.90  32633.35  72.14
897.0  45257.72  32617.50  72.07
898.1  45230.13  32575.60  72.02
899.2  45252.30  32524.68  71.87
900.3  45165.90  32419.29  71.78
901.4  45101.16  32297.99  71.61
902.4  45077.20  32258.29  71.56
903.5  45018.01  32177.82  71.48
904.6  45035.56  32109.52  71.30
905.7  45038.93  32055.93  71.17
906.7  44985.82  31985.95  71.10
907.8  45025.57  31976.97  71.02
908.9  44904.57  31855.59  70.94
909.9  44897.74  31792.56  70.81
911.0  44830.08  31697.51  70.71
912.1  44749.25  31566.74  70.54
913.1  44707.00  31457.26  70.36
914.2  44554.62  31277.25  70.20
915.2  44505.45  31227.08  70.16
916.3  44491.35  31123.18  69.95
917.3  44461.10  31027.13  69.78
918.4  44383.35  30848.57  69.50
919.4  44330.69  30746.26  69.36
920.5  44315.70  30646.36  69.15
921.5  44285.78  30551.91  68.99
922.6  44268.10  30397.85  68.67
923.6  44262.16  30324.38  68.51
924.7  44333.00  30227.57  68.18
925.7  44276.22  30094.87  67.97
926.7  44252.98  29978.82  67.74
927.8  44374.33  29887.66  67.35
928.8  44502.63  29829.56  67.03
929.9  44598.23  29753.63  66.71
930.9  44802.27  29762.00  66.43
931.9  45011.35  29776.53  66.15
932.9  45355.12  29820.30  65.75
934.0  45370.16  29700.35  65.46
935.0  45397.97  29605.89  65.21
936.0  45413.73  29455.36  64.86
937.0  45319.95  29282.32  64.61
938.1  45295.44  29136.64  64.33
939.1  45257.91  28972.19  64.02
940.1  45342.90  28879.85  63.69
941.1  45568.46  28852.23  63.32
942.1  45803.34  28868.39  63.03
943.1  45999.43  28850.15  62.72
944.1  46171.28  28860.37  62.51
945.2  46338.18  28717.78  61.97
946.2  46411.22  28610.14  61.64
947.2  46518.25  28509.26  61.29
948.2  46693.82  28453.68  60.94
949.2  46838.19  28319.31  60.46
950.2  46912.95  28156.67  60.02
951.2  46909.80  28033.54  59.76
952.2  47054.57  27915.08  59.32
953.2  47260.85  27850.78  58.93
954.2  47365.65  27736.49  58.56
955.2  47408.68  27607.44  58.23
956.2  47434.65  27457.83  57.89
957.2  47543.77  27379.98  57.59
958.2  47601.59  27294.95  57.34
959.2  47735.55  27258.83  57.10
960.1  47775.14  27187.18  56.91
961.1  47870.63  27197.48  56.81
962.1  47933.44  27165.25  56.67
963.1  48032.50  27167.34  56.56
964.1  48057.21  27144.01  56.48
965.1  48243.99  27209.10  56.40
966.1  48335.33  27235.27  56.35
967.0  48410.39  27266.00  56.32
968.0  48434.88  27224.01  56.21
969.0  48556.60  27304.26  56.23
970.0  48603.65  27339.00  56.25
971.0  48737.12  27387.57  56.19
971.9  48722.90  27404.96  56.25
972.9  48879.95  27376.54  56.01
973.9  48859.53  27429.46  56.14
974.9  49044.08  27495.39  56.06
975.8  49101.73  27502.64  56.01
976.8  49135.91  27573.70  56.12
977.8  49315.41  27630.01  56.03
978.8  49372.50  27683.79  56.07
979.7  49504.50  27795.86  56.15
981.4  50850.20  26961.96  53.02
985.3  50481.20  27093.76  53.67
989.3  50535.22  27495.13  54.41
993.3  50635.09  27909.30  55.12
997.2  50595.02  28177.50  55.69
1001.2  50545.04  28384.50  56.16
1005.2  50473.33  28582.19  56.63
1009.1  50535.74  28890.47  57.17
1013.1  50697.93  29289.87  57.77
1017.1  50843.90  29695.07  58.40
1021.0  50855.49  30018.01  59.03
1025.0  50816.26  30303.16  59.63
1029.0  50641.08  30488.26  60.20
1032.9  50496.42  30677.70  60.75
1036.9  50486.34  30951.07  61.31
1040.9  50614.23  31316.80  61.87
1044.8  50848.91  31738.53  62.42
1048.8  51055.33  32109.74  62.89
1052.7  51200.97  32415.38  63.31
1056.7  51265.76  32631.28  63.65
1060.7  51328.86  32782.51  63.87
1064.6  51364.29  32902.48  64.06
1068.6  51285.22  32896.15  64.14
1072.5  51205.93  32849.12  64.15
1076.5  51155.97  32798.95  64.12
1080.4  51154.95  32707.44  63.94
1084.4  51258.31  32651.74  63.70
1088.3  51367.47  32560.78  63.39
1092.3  51376.13  32362.33  62.99
1096.2  51342.58  32131.24  62.58
1100.2  51360.86  31916.96  62.14
1104.1  51244.60  31602.95  61.67
1108.1  51175.76  31314.72  61.19
1112.0  51059.75  30986.69  60.69
1116.0  50831.30  30560.90  60.12
1119.9  50653.13  30093.43  59.41
1123.9  50703.41  29676.81  58.53
1127.8  50649.60  29040.64  57.34
1131.8  50608.23  28220.67  55.76
1135.7  50617.81  27295.37  53.92
1139.6  50606.06  26276.68  51.92
1143.6  50555.26  25280.77  50.01
1147.5  50517.05  24432.94  48.37
1151.4  50365.69  23707.10  47.07
1155.4  50355.11  23259.45  46.19
1159.3  50376.78  22986.79  45.63
1163.2  50207.59  22717.31  45.25
1167.2  50161.80  22580.48  45.02
1171.1  50174.37  22493.33  44.83
1175.0  50101.08  22379.25  44.67
1179.0  50065.70  22287.29  44.52
1182.9  50165.17  22261.59  44.38
1186.8  50159.61  22184.35  44.23
1190.7  49934.95  22004.56  44.07
1194.7  49665.47  21828.61  43.95
1198.6  49438.62  21700.14  43.89
1202.5  49264.40  21623.19  43.89
1206.4  49122.14  21591.78  43.96
1210.3  49037.26  21597.96  44.04
1214.2  48930.30  21612.46  44.17
1218.2  48765.56  21629.67  44.35
1222.1  48630.48  21665.22  44.55
1226.0  48538.40  21721.73  44.75
1229.9  48450.48  21780.88  44.95
1233.8  48352.03  21817.85  45.12
1237.7  48317.50  21869.46  45.26
1241.6  48229.08  21907.06  45.42
1245.5  48061.09  21896.21  45.56
1249.4  47934.98  21881.47  45.65
1253.3  47803.87  21878.56  45.77
1257.2  47735.46  21893.96  45.87
1261.1  47624.11  21869.03  45.92
1265.0  47490.52  21797.99  45.90
1268.9  47304.07  21686.77  45.85
1272.8  47372.70  21691.35  45.79
1276.7  47590.81  21742.49  45.69
1280.6  47691.16  21706.10  45.51
1284.5  47615.01  21560.37  45.28
1288.4  47591.67  21410.27  44.99
1292.3  47467.75  21186.00  44.63
1296.2  47318.59  20930.37  44.23
1300.1  47148.87  20636.67  43.77
1303.9  46897.39  20276.21  43.24
1307.8  46639.44  19890.16  42.65
1311.7  46386.67  19473.96  41.98
1315.6  46123.85  19034.87  41.27
1319.5  45848.18  18572.56  40.51
1323.3  45606.50  18098.18  39.68
1327.2  45386.16  17630.05  38.84
1331.1  45132.53  17155.38  38.01
1335.0  44824.46  16659.87  37.17
1338.8  44600.56  16221.64  36.37
1342.7  44421.07  15820.05  35.61
1346.5  44042.02  15362.87  34.88
1350.4  43720.62  14948.68  34.19
1354.3  43279.60  14526.61  33.56
1358.1  42799.92  14110.07  32.97
1362.0  42533.76  13741.36  32.31
1365.8  42447.40  13411.77  31.60
1369.7  42569.31  13107.03  30.79
1373.5  42515.11  12651.89  29.76
1377.4  42239.08  12023.01  28.46
1381.2  42024.35  11302.48  26.90
1385.1  42007.68  10586.32  25.20
1389.0  41913.21  9839.99  23.48
1392.8  41686.58  9070.87  21.76
1396.6  41522.45  8372.54  20.16
1400.5  41297.26  7746.13  18.76
1404.3  41119.22  7235.21  17.60
1408.2  41089.83  6838.15  16.64
1412.0  41038.18  6519.98  15.89
1415.8  41063.56  6295.32  15.33
1419.6  41020.11  6099.76  14.87
1423.5  40984.07  5949.52  14.52
1427.3  40938.38  5845.78  14.28
1431.1  40915.35  5773.75  14.11
1434.9  40812.08  5696.24  13.96
1438.8  40755.58  5643.97  13.85
1442.6  40720.04  5618.44  13.80
1446.4  40579.53  5578.10  13.75
1450.2  40476.97  5555.03  13.72
1454.0  40349.16  5539.64  13.73
1457.8  40313.93  5546.88  13.76
1461.6  40291.52  5571.06  13.83
1465.4  40157.17  5596.11  13.94
1469.2  39958.10  5629.11  14.09
1473.0  39808.79  5686.43  14.28
1476.8  39739.71  5773.21  14.53
1480.7  39668.27  5876.78  14.81
1484.4  39532.92  5981.96  15.13
1488.2  39418.92  6102.80  15.48
1492.0  39281.08  6234.55  15.87
1495.8  39157.30  6365.45  16.26
1499.6  39041.55  6472.36  16.58
1503.4  38891.42  6558.17  16.86
1507.2  38758.78  6641.29  17.13
1510.9  38603.27  6721.29  17.41
1514.7  38431.80  6789.69  17.67
1518.5  38296.78  6864.60  17.92
1522.3  38148.01  6937.22  18.19
1526.0  38038.86  7028.71  18.48
1529.8  37977.87  7150.59  18.83
1533.6  37845.65  7256.04  19.17
1537.3  37710.11  7355.86  19.51
1541.1  37580.52  7447.70  19.82
1544.8  37449.60  7538.40  20.13
1548.6  37314.89  7637.51  20.47
1552.4  37219.38  7732.79  20.78
1556.1  37135.69  7803.58  21.01
1559.9  37030.39  7859.50  21.22
1563.6  36900.49  7916.35  21.45
1567.3  36782.10  7999.33  21.75
1571.1  36560.28  8073.03  22.08
1574.8  36404.14  8155.58  22.40
1578.6  36302.38  8230.64  22.67
1582.3  36157.52  8281.87  22.90
1586.0  36009.48  8323.70  23.12
1589.8  35863.84  8356.04  23.30
1593.5  35710.53  8386.99  23.49
1597.2  35575.62  8421.11  23.67
1600.9  35432.24  8448.95  23.85
1604.7  35280.85  8468.98  24.00
1608.4  35142.04  8506.82  24.21
1612.1  34980.47  8539.46  24.41
1615.8  34834.07  8564.56  24.59
1619.5  34752.20  8606.11  24.76
1623.2  34595.03  8626.83  24.94
1626.9  34406.93  8636.05  25.10
1630.6  34230.90  8646.66  25.26
1634.3  34081.71  8658.86  25.41
1638.0  33920.36  8653.08  25.51
1641.7  33748.10  8628.79  25.57
1645.4  33556.70  8604.03  25.64
1649.1  33353.05  8570.81  25.70
1652.8  33189.89  8542.16  25.74
1656.4  33018.59  8506.68  25.76
1660.1  32845.97  8477.22  25.81
1663.8  32642.92  8437.52  25.85
1667.5  32483.35  8400.44  25.86
1671.1  32351.26  8364.44  25.86
1674.8  32144.07  8304.70  25.84
1678.5  32080.00  8274.54  25.79
1682.1  32102.13  8248.91  25.70
1685.8  32123.16  8219.81  25.59
1689.5  32018.65  8163.38  25.50
1693.1  31881.24  8084.07  25.36
1696.8  31732.38  8000.59  25.21
1700.4  31582.94  7911.42  25.05
1704.0  31466.76  7821.04  24.85
1707.7  31189.67  7688.56  24.65
1711.3  30882.00  7545.33  24.43
1715.0  30659.79  7429.64  24.23
1718.6  30484.31  7326.17  24.03
1722.2  30333.58  7228.82  23.83
1725.9  30181.80  7123.98  23.60
1729.5  30037.98  7035.71  23.42
1733.1  29910.73  6980.29  23.34
1736.7  29788.38  6931.51  23.27
1740.3  29614.18  6857.68  23.16
1744.0  29528.30  6792.66  23.00
1747.5  29373.44  6704.37  22.82
1751.2  29138.63  6586.47  22.60
1754.8  28975.37  6484.82  22.38
1758.4  28834.48  6396.27  22.18
1762.0  28639.33  6295.02  21.98
1765.5  28498.38  6223.35  21.84
1769.1  28452.00  6187.20  21.75
1772.7  28378.96  6143.69  21.65
1776.3  28252.73  6086.75  21.54
1779.9  28119.54  6031.10  21.45
1783.5  28061.20  6003.25  21.39
1787.0  27938.82  5961.78  21.34
1790.6  27774.17  5914.24  21.29
1794.2  27666.21  5883.10  21.26
1797.8  27558.84  5859.03  21.26
1801.3  27465.68  5839.27  21.26
1804.9  27315.75  5811.75  21.28
1808.4  27221.13  5803.30  21.32
1812.0  27071.27  5773.00  21.33
1815.5  26907.62  5737.92  21.32
1819.1  26703.43  5691.58  21.31
1822.6  26545.43  5650.79  21.29
1826.2  26400.51  5619.50  21.29
1829.7  26207.46  5575.72  21.28
1833.2  25952.41  5510.30  21.23
1836.8  25712.51  5434.67  21.14
1840.3  25567.16  5377.55  21.03
1843.8  25454.03  5334.79  20.96
1847.3  25371.56  5296.59  20.88
1850.8  25264.51  5238.91  20.74
1854.3  25105.60  5151.38  20.52
1857.8  25027.60  5033.60  20.11
1861.3  25027.70  4868.48  19.45
1864.8  24948.54  4656.79  18.67
1868.3  24715.93  4362.93  17.65
1871.8  24529.92  4047.36  16.50
1875.3  24489.01  3766.95  15.38
1878.8  24485.84  3498.35  14.29
1882.3  24423.29  3255.92  13.33
1885.8  24245.59  3006.27  12.40
1889.3  24030.42  2794.24  11.63
1892.7  23852.68  2632.59  11.04
1896.2  23673.74  2517.87  10.64
1899.7  23427.69  2461.09  10.51
1901.7  21937.94  1675.33  7.64
1904.5  22143.94  1657.53  7.49
1907.2  22059.00  1632.42  7.40
1910.0  21927.95  1608.28  7.33
1912.7  21918.25  1600.00  7.30
1915.5  21816.04  1580.60  7.25
1918.2  21741.95  1564.92  7.20
1921.0  21589.30  1539.23  7.13
1923.7  21620.81  1545.22  7.15
1926.5  21581.93  1529.55  7.09
1929.2  21568.04  1521.03  7.05
1932.0  21551.20  1538.92  7.14
1934.7  21508.34  1538.32  7.15
1937.4  21385.99  1535.32  7.18
1940.2  21322.79  1541.79  7.23
1942.9  21412.44  1554.98  7.26
1945.6  21432.94  1567.38  7.31
1948.3  21347.13  1582.38  7.41
1951.1  21319.83  1593.29  7.47
1953.8  21321.00  1594.00  7.48
1956.5  21174.65  1602.33  7.57
1959.2  21255.91  1631.54  7.68
1961.9  21274.22  1645.95  7.74
1964.6  21161.18  1663.03  7.86
1967.3  21232.43  1687.04  7.95
1970.0  21063.36  1678.32  7.97
1972.8  20962.32  1707.15  8.14
1975.5  21019.32  1727.71  8.22
1978.2  20951.00  1739.35  8.30
1980.9  20833.51  1762.61  8.46
1983.5  20753.87  1773.12  8.54
1986.2  20730.84  1784.80  8.61
1988.9  20710.47  1817.78  8.78
1991.6  20560.54  1821.04  8.86
1994.3  20429.18  1810.02  8.86
1997.0  20463.02  1848.22  9.03
1999.7  20411.81  1864.67  9.14
2002.3  20392.69  1877.50  9.21
2005.0  20300.64  1901.48  9.37
2007.7  20215.73  1920.67  9.50
2010.4  20150.59  1932.84  9.59
2013.0  20054.41  1953.57  9.74
2015.7  19971.23  1960.75  9.82
2018.4  19850.99  1979.05  9.97
2021.0  19776.67  1993.72  10.08
2023.7  19665.12  1988.09  10.11
2026.4  19623.72  1999.83  10.19
2029.0  19549.52  2021.59  10.34
2031.7  19389.93  2028.00  10.46
2034.3  19392.75  2041.15  10.53
2037.0  19277.12  2058.71  10.68
2039.6  19203.81  2067.80  10.77
2042.3  19169.68  2068.80  10.79
2044.9  19085.22  2080.38  10.90
2047.5  19057.17  2106.56  11.05
2050.2  18939.20  2106.53  11.12
2052.8  18894.40  2125.20  11.25
2055.4  18768.37  2127.40  11.34
2058.1  18622.80  2117.73  11.37
2060.7  18569.98  2139.11  11.52
2063.3  18475.60  2140.16  11.58
2065.9  18427.79  2144.00  11.63
2068.6  18352.42  2152.38  11.73
2071.2  18299.61  2162.25  11.82
2073.8  18217.15  2164.04  11.88
2076.4  18153.52  2183.59  12.03
2079.0  18135.74  2198.36  12.12
2081.6  18151.63  2205.65  12.15
2084.2  18112.28  2232.88  12.33
2086.8  17948.60  2226.84  12.41
2089.4  17865.33  2219.22  12.42
2092.1  17782.00  2231.72  12.55
2094.7  17712.75  2248.70  12.70
2097.2  17685.67  2250.61  12.73
2099.8  17677.80  2264.05  12.81
2102.4  17557.58  2265.19  12.90
2105.0  17419.20  2255.30  12.95
2107.6  17352.05  2275.82  13.12
2110.2  17317.12  2288.49  13.22
2112.8  17308.85  2296.39  13.27
2115.3  17299.79  2319.92  13.41
2117.9  17305.54  2336.81  13.50
2120.5  17283.04  2332.98  13.50
2123.1  17169.75  2334.15  13.59
2125.6  17130.75  2352.43  13.73
2128.2  17041.98  2351.09  13.80
2130.8  16938.68  2360.48  13.94
2133.3  16907.73  2364.27  13.98
2135.9  16811.63  2352.35  13.99
2138.4  16669.29  2349.47  14.09
2141.0  16557.51  2340.87  14.14
2143.6  16519.94  2347.29  14.21
2146.1  16331.26  2342.83  14.35
2148.7  16166.35  2318.01  14.34
2151.2  16200.80  2332.98  14.40
2153.8  16223.65  2355.65  14.52
2156.3  16092.71  2327.23  14.46
2158.8  16012.97  2318.37  14.48
2161.4  15977.02  2336.06  14.62
2163.9  15879.72  2314.45  14.57
2166.4  15806.34  2305.21  14.58
2169.0  15776.77  2319.01  14.70
2171.5  15691.03  2307.19  14.70
2174.0  15580.08  2289.76  14.70
2176.5  15568.93  2298.31  14.76
2179.1  15528.15  2294.89  14.78
2181.6  15436.46  2272.13  14.72
2184.1  15393.84  2277.15  14.79
2186.6  15412.36  2295.17  14.89
2189.1  15330.96  2255.56  14.71
2191.6  15265.13  2265.98  14.84
2194.1  15289.63  2295.27  15.01
2196.6  15291.79  2275.77  14.88
2199.2  15355.64  2287.18  14.89
2201.7  15282.97  2286.30  14.96
2204.1  15217.08  2269.86  14.92
2206.6  15263.16  2266.60  14.85
2209.1  15196.78  2253.34  14.83
2211.6  15154.34  2245.93  14.82
2214.1  15142.04  2261.99  14.94
2216.6  15136.36  2260.01  14.93
2219.1  15121.17  2233.42  14.77
2221.6  15017.30  2215.48  14.75
2224.0  14973.30  2205.99  14.73
2226.5  14953.65  2195.49  14.68
2229.0  14990.65  2200.25  14.68
2231.5  14856.57  2169.06  14.60
2233.9  14819.93  2152.50  14.52
2236.4  14830.12  2126.86  14.34
2238.9  14725.00  2064.09  14.02
2241.3  14738.24  2052.16  13.92
2243.8  14703.26  2080.66  14.15
2246.2  14560.76  2074.02  14.24
2248.7  14543.49  2031.18  13.97
2251.2  14547.02  2020.31  13.89
2253.6  14461.44  2009.60  13.90
2256.1  14411.52  1968.64  13.66
2258.5  14448.51  1960.53  13.57
2260.9  14358.24  1925.17  13.41
2263.4  14286.28  1888.46  13.22
2265.8  14286.52  1866.92  13.07
2268.3  14242.68  1863.88  13.09
2270.7  14293.95  1871.83  13.10
2273.1  14208.68  1839.52  12.95
2275.6  14138.88  1829.12  12.94
2278.0  14162.68  1815.33  12.82
2280.4  14119.54  1802.30  12.76
2282.8  13992.20  1757.74  12.56
2285.3  14040.77  1729.01  12.31
2287.7  14128.29  1739.03  12.31
2290.1  13998.75  1719.70  12.28
2292.5  13976.47  1698.45  12.15
2294.9  14012.61  1687.36  12.04
2297.3  13889.96  1645.28  11.85
2299.7  13787.58  1593.81  11.56
2302.1  13749.17  1575.26  11.46
2304.5  13602.40  1543.17  11.34
2306.9  13496.56  1505.28  11.15
2309.3  13451.64  1513.78  11.25
2311.7  13329.30  1490.19  11.18
2314.1  13154.03  1454.56  11.06
2316.5  13124.14  1480.13  11.28
2318.9  13145.46  1484.70  11.29
2321.3  13101.23  1482.98  11.32
2323.7  13118.10  1498.83  11.43
2326.1  13081.38  1493.79  11.42
2328.4  13108.17  1480.87  11.30
2330.8  13202.52  1483.31  11.24
2333.2  13104.54  1464.75  11.18
2335.6  13023.78  1436.48  11.03
2337.9  13062.53  1441.19  11.03
2340.3  13002.24  1416.24  10.89
2342.7  12902.35  1387.99  10.76
2345.0  12884.39  1371.68  10.65
2347.4  12860.50  1355.75  10.54
2349.7  12661.22  1317.10  10.40
2352.1  12633.43  1296.51  10.26
2354.4  12658.59  1318.16  10.41
2356.8  12578.77  1319.46  10.49
2359.2  12527.67  1302.89  10.40
2361.5  12479.13  1288.64  10.33
2363.8  12494.29  1270.66  10.17
2366.2  12489.73  1288.69  10.32
2368.5  12451.10  1266.77  10.17
2370.9  12453.76  1216.75  9.77
2373.2  12415.30  1238.08  9.97
2375.5  12276.33  1227.79  10.00
2377.9  12211.78  1201.88  9.84
2380.2  12242.21  1189.71  9.72
2382.5  12139.99  1162.54  9.58
2384.8  12068.64  1163.09  9.64
2387.2  12086.52  1178.33  9.75
2389.5  12068.58  1174.12  9.73
2391.8  12016.43  1129.71  9.40
2394.1  11909.46  1121.21  9.41
2396.4  11863.59  1128.95  9.52
2398.7  11940.46  1117.24  9.36
2401.0  11823.50  1122.52  9.49
2403.3  11693.04  1097.26  9.38
2405.6  11741.09  1077.98  9.18
2407.9  11668.29  1083.83  9.29
2410.2  11575.79  1054.47  9.11
2412.5  11525.22  1033.27  8.97
2414.8  11512.67  1033.85  8.98
2417.1  11505.36  1016.85  8.84
2419.4  11477.63  1015.95  8.85
2421.7  11364.91  1009.28  8.88
2424.0  11316.90  982.70  8.68
2426.2  11347.35  959.43  8.46
2428.5  11281.78  964.49  8.55
2430.8  11243.35  962.83  8.56
2433.1  11179.50  964.35  8.63
2435.4  11100.48  956.75  8.62
2437.6  11066.91  908.26  8.21
2439.9  10932.41  900.27  8.23
2442.2  10967.11  912.03  8.32
2444.4  10975.51  884.47  8.06
2446.7  10909.12  858.48  7.87
2448.9  10931.40  872.46  7.98
2451.2  10853.16  880.09  8.11
2453.4  10787.73  859.80  7.97
2455.7  10721.98  847.38  7.90
2457.9  10647.12  832.32  7.82
2460.2  10665.45  811.73  7.61
2462.4  10576.80  823.68  7.79
2464.7  10503.38  803.26  7.65
2466.9  10471.02  772.54  7.38
2469.2  10480.86  801.57  7.65
2471.4  10359.57  805.31  7.77
2473.6  10250.05  778.86  7.60
2475.9  10220.96  778.93  7.62
2478.1  10124.53  774.26  7.65
2480.3  10080.49  744.90  7.39
2482.5  10057.71  764.87  7.60
2484.8  9961.32  750.01  7.53
2487.0  9924.93  735.73  7.41
2489.2  9935.52  768.91  7.74
2491.4  9875.23  742.89  7.52
2493.6  9884.14  731.58  7.40
2495.8  9866.24  736.41  7.46
2498.0  9849.60  697.17  7.08
2500.2  9865.68  659.96  6.69
2502.4  10096.56  725.20  7.18
2504.6  10244.49  776.24  7.58
2506.8  10345.65  776.09  7.50
