/*** Spectra Vista SIG Data ***/
name= S2.sig
comm= Resampled spectral data SIG file reprocesed for matching/overlap;Averaged Ref/Tar of files: GD3S4,GD3S5,GD3S6
data=
346.0  598.78  176.03  29.40
356.0  924.17  205.57  22.24
366.0  1234.61  230.93  18.70
376.0  1691.57  245.93  14.54
386.0  2110.32  249.90  11.84
396.0  2699.64  316.47  11.72
406.0  3258.06  324.59  9.96
416.0  3980.12  415.88  10.45
426.0  4560.62  470.03  10.31
436.0  5560.57  555.68  9.99
446.0  6459.13  688.60  10.66
456.0  7345.42  845.72  11.51
466.0  8824.96  1053.14  11.93
476.0  10121.58  1231.30  12.17
486.0  10943.49  1379.11  12.60
496.0  12761.25  1830.24  14.34
506.0  14311.81  2659.87  18.59
516.0  15112.04  3798.39  25.13
526.0  16957.18  5390.18  31.79
536.0  19355.60  6954.71  35.93
546.0  21330.59  8125.96  38.10
556.0  21581.55  8497.77  39.38
566.0  23226.44  9002.52  38.76
576.0  25810.52  9403.95  36.43
586.0  27755.51  9584.70  34.53
596.0  29194.08  9711.00  33.26
606.0  29534.45  9401.08  31.83
616.0  31318.23  9174.78  29.30
626.0  34410.58  9585.73  27.86
636.0  34069.21  9039.61  26.53
646.0  34679.65  8460.61  24.40
656.0  34069.42  7153.92  21.00
666.0  35802.93  5802.56  16.21
676.0  37841.78  5462.28  14.43
686.0  40854.13  7754.77  18.98
696.0  41747.28  14996.79  35.92
706.0  41971.06  22255.63  53.03
716.0  41223.34  26268.90  63.72
726.0  40067.78  28001.04  69.88
736.0  39511.29  28730.30  72.71
746.0  41985.01  31274.56  74.49
756.0  42844.63  32008.75  74.71
766.0  44461.06  33700.24  75.80
776.0  45318.27  34522.10  76.18
786.0  45304.05  34793.72  76.80
796.0  44083.17  33716.06  76.48
806.0  42558.06  32685.41  76.80
816.0  42205.19  32508.03  77.02
826.0  41881.04  31945.25  76.28
836.0  42513.48  32010.27  75.29
846.0  43677.73  32940.82  75.42
856.0  44639.93  33484.01  75.01
866.0  45173.91  33809.55  74.84
876.0  45452.84  33794.76  74.35
886.0  45709.40  33487.36  73.26
896.0  45235.90  32633.35  72.14
906.0  45023.00  32034.94  71.15
916.0  44495.20  31151.52  70.01
926.0  44269.25  30060.06  67.90
936.0  45413.73  29455.36  64.86
946.0  46396.61  28631.67  61.71
956.0  47429.46  27487.75  57.96
966.0  48326.20  27232.65  56.35
976.0  49108.57  27516.85  56.03
986.0  50490.65  27164.00  53.80
996.0  50607.35  28094.98  55.52
1006.0  50486.13  28645.43  56.74
1016.0  50803.76  29583.64  58.23
1026.0  50772.47  30349.44  59.78
1036.0  50488.61  30889.56  61.18
1046.0  50910.83  31849.89  62.56
1056.0  51254.42  32593.50  63.59
1066.0  51336.62  32900.26  64.09
1076.0  51162.22  32805.22  64.12
1086.0  51303.09  32614.42  63.57
1096.0  51344.30  32143.09  62.60
1106.0  51211.90  31466.04  61.44
1116.0  50831.30  30560.90  60.12
1126.0  50674.44  29334.26  57.89
1136.0  50616.91  27217.00  53.77
1146.0  50531.75  24759.03  49.00
1156.0  50358.44  23217.50  46.10
1166.0  50175.54  22621.53  45.08
1176.0  50092.24  22356.26  44.63
1186.0  50160.75  22200.19  44.26
1196.0  49589.85  21785.79  43.93
1206.0  49136.73  21595.00  43.95
1216.0  48856.16  21620.20  44.25
1226.0  48538.40  21721.73  44.75
1236.0  48332.55  21846.96  45.20
1246.0  48044.92  21894.32  45.57
1256.0  47756.51  21889.22  45.84
1266.0  47442.71  21769.47  45.89
1276.0  47551.66  21733.31  45.70
1286.0  47606.03  21502.64  45.17
1296.0  47326.24  20943.48  44.25
1306.0  46758.50  20068.34  42.92
1316.0  46095.57  18987.45  41.19
1326.0  45453.96  17774.09  39.10
1336.0  44765.54  16544.55  36.96
1346.0  44091.89  15423.02  34.98
1356.0  43065.01  14340.26  33.30
1366.0  42453.65  13396.15  31.55
1376.0  42338.17  12248.76  28.93
1386.0  41985.88  10414.09  24.80
1396.0  41548.36  8482.80  20.42
1406.0  41106.41  7062.13  17.18
1416.0  41061.27  6285.03  15.31
1426.0  40954.01  5881.27  14.36
1436.0  40796.14  5681.50  13.93
1446.0  40594.32  5582.35  13.75
1456.0  40330.62  5543.45  13.75
1466.0  40125.74  5601.32  13.96
1476.0  39754.25  5754.94  14.48
1486.0  39484.92  6032.84  15.28
1496.0  39151.21  6371.08  16.27
1506.0  38800.67  6615.04  17.05
1516.0  38385.61  6815.32  17.75
1526.0  38038.86  7028.71  18.48
1536.0  37757.73  7320.79  19.39
1546.0  37407.06  7569.70  20.24
1556.0  37137.95  7801.67  21.01
1566.0  36823.70  7970.17  21.64
1576.0  36372.01  8179.28  22.49
1586.0  36009.48  8323.70  23.12
1596.0  35619.37  8410.04  23.61
1606.0  35232.08  8482.28  24.08
1616.0  34829.65  8566.81  24.60
1626.0  34452.68  8633.81  25.06
1636.0  34007.58  8656.20  25.45
1646.0  33523.68  8598.64  25.65
1656.0  33037.62  8510.62  25.76
1666.0  32548.04  8415.47  25.86
1676.0  32123.29  8294.92  25.82
1686.0  32117.51  8216.76  25.58
1696.0  31764.57  8018.64  25.24
1706.0  31316.98  7749.43  24.75
1716.0  30611.05  7400.90  24.18
1726.0  30177.81  7121.53  23.60
1736.0  29812.17  6940.99  23.28
1746.0  29439.81  6742.21  22.90
1756.0  28928.41  6455.30  22.31
1766.0  28491.94  6218.33  21.82
1776.0  28263.25  6091.50  21.55
1786.0  27973.79  5973.63  21.35
1796.0  27612.53  5871.07  21.26
1806.0  27286.01  5809.09  21.29
1816.0  26879.26  5731.48  21.32
1826.0  26408.56  5621.24  21.29
1836.0  25765.82  5451.48  21.16
1846.0  25402.19  5310.78  20.91
1856.0  25067.72  5094.17  20.32
1866.0  24868.79  4556.04  18.32
1876.0  24488.38  3713.23  15.16
1886.0  24233.30  2994.16  12.36
1896.0  23683.96  2524.42  10.66
1906.0  22096.75  1643.58  7.44
1916.0  21802.32  1577.70  7.24
1926.0  21588.87  1532.35  7.10
1936.0  21449.43  1536.88  7.17
1946.0  21420.23  1569.60  7.33
1956.0  21201.75  1600.79  7.55
1966.0  21198.12  1675.48  7.90
1976.0  21006.67  1729.87  8.23
1986.0  20732.55  1783.94  8.60
1996.0  20450.49  1834.07  8.97
2006.0  20269.19  1908.59  9.42
2016.0  19957.87  1962.78  9.83
2026.0  19629.85  1998.09  10.18
2036.0  19319.95  2052.21  10.62
2046.0  19073.35  2091.46  10.97
2056.0  18736.02  2125.25  11.34
2066.0  18425.00  2144.31  11.64
2076.0  18163.31  2180.58  12.01
2086.0  17998.96  2228.70  12.38
2096.0  17698.67  2249.69  12.71
2106.0  17393.37  2263.19  13.01
2116.0  17301.34  2324.47  13.44
2126.0  17117.10  2352.22  13.74
2136.0  16805.93  2352.23  14.00
2146.0  16338.81  2343.01  14.34
2156.0  16108.43  2330.64  14.47
2166.0  15818.08  2306.69  14.58
2176.0  15571.16  2296.60  14.75
2186.0  15407.91  2290.84  14.87
2196.0  15291.27  2280.45  14.91
2206.0  15252.10  2267.38  14.87
2216.0  15137.72  2260.49  14.93
2226.0  14957.58  2197.59  14.69
2236.0  14828.49  2130.96  14.37
2246.0  14572.63  2074.57  14.24
2256.0  14413.52  1970.28  13.67
2266.0  14283.01  1866.68  13.07
2276.0  14142.85  1826.82  12.92
2286.0  14066.30  1731.93  12.31
2296.0  13956.39  1668.07  11.95
2306.0  13536.25  1519.49  11.23
2316.0  13130.37  1474.80  11.23
2326.0  13082.91  1494.00  11.42
2336.0  13030.52  1437.30  11.03
2346.0  12874.44  1365.04  10.60
2356.0  12605.38  1319.03  10.46
2366.0  12490.11  1287.19  10.31
2376.0  12262.88  1222.39  9.97
2386.0  12077.58  1170.71  9.69
2396.0  11871.57  1127.60  9.50
2406.0  11728.43  1079.00  9.20
2416.0  11508.86  1024.98  8.91
2426.0  11344.58  961.54  8.48
2436.0  11091.32  943.52  8.51
2446.0  10929.32  866.39  7.93
2456.0  10711.77  845.33  7.89
2466.0  10484.26  785.11  7.49
2476.0  10216.57  778.72  7.62
2486.0  9941.47  742.22  7.47
2496.0  9864.73  732.84  7.43
2506.0  10308.86  776.14  7.53
