/*** Spectra Vista SIG Data ***/
name= GS.sig
comm= Resampled spectral data SIG file reprocesed for matching/overlap;Averaged Ref/Tar of files: GS1,GS2,GS3
data=
346.0  468.20  197.47  42.18
356.0  683.10  222.32  32.55
366.0  906.09  249.69  27.56
376.0  1249.89  263.83  21.11
386.0  1571.27  263.32  16.76
396.0  2026.07  357.21  17.63
406.0  2502.77  361.17  14.43
416.0  3165.14  460.70  14.56
426.0  3668.56  518.18  14.12
436.0  4548.65  605.81  13.32
446.0  5417.72  769.48  14.20
456.0  6302.44  953.91  15.14
466.0  7615.04  1162.77  15.27
476.0  8743.20  1349.74  15.44
486.0  9533.40  1525.08  16.00
496.0  11257.81  2045.21  18.17
506.0  12699.26  3019.32  23.78
516.0  13281.41  4444.96  33.47
526.0  14721.08  6500.54  44.16
536.0  16749.01  8457.27  50.49
546.0  18621.46  9853.83  52.92
556.0  19066.94  10209.73  53.55
566.0  20585.57  10504.60  51.03
576.0  22670.38  10485.62  46.25
586.0  24106.47  10270.29  42.60
596.0  25247.53  10203.03  40.41
606.0  25711.34  9927.45  38.61
616.0  27649.38  9726.87  35.18
626.0  31025.14  9793.92  31.57
636.0  30881.13  9561.15  30.96
646.0  31238.37  8549.06  27.37
656.0  30360.38  7160.87  23.59
666.0  31764.82  5891.69  18.55
676.0  33416.99  5635.13  16.86
686.0  36086.51  8310.35  23.03
696.0  37161.40  17026.73  45.82
706.0  37800.45  27038.07  71.53
716.0  37597.62  33294.69  88.56
726.0  36909.99  36417.95  98.67
736.0  36510.50  37659.12  103.15
746.0  38642.98  40876.41  105.78
756.0  39260.04  41923.92  106.79
766.0  40452.13  43819.25  108.32
776.0  40956.88  44820.32  109.43
786.0  40712.49  45128.56  110.85
796.0  39541.78  43981.88  111.23
806.0  38183.08  42823.80  112.15
816.0  37991.58  42792.21  112.64
826.0  38001.34  42332.22  111.40
836.0  38898.28  42618.11  109.56
846.0  40272.93  43902.73  109.01
856.0  41435.70  44658.69  107.78
866.0  42009.41  44998.35  107.11
876.0  42227.12  44828.60  106.16
886.0  42357.46  44376.61  104.77
896.0  41812.69  43293.33  103.54
906.0  41556.83  42606.18  102.53
916.0  41043.62  41440.01  100.97
926.0  40765.22  39972.11  98.05
936.0  41670.71  39041.12  93.69
946.0  42483.47  37770.86  88.91
956.0  43315.05  35951.46  83.00
966.0  43997.52  35424.42  80.51
976.0  44695.21  35426.93  79.26
986.0  47191.67  36341.74  77.01
996.0  47061.19  36729.46  78.05
1006.0  46939.72  37453.32  79.79
1016.0  47337.20  38820.41  82.01
1026.0  47434.95  39942.87  84.21
1036.0  47300.39  40877.63  86.42
1046.0  47814.52  42283.01  88.43
1056.0  48169.66  43352.17  90.00
1066.0  48243.60  43803.71  90.80
1076.0  48081.60  43711.89  90.91
1086.0  48203.49  43444.20  90.13
1096.0  48223.42  42812.82  88.78
1106.0  48093.81  41903.47  87.13
1116.0  47754.46  40655.79  85.14
1126.0  47607.19  38908.28  81.73
1136.0  47567.70  35861.46  75.39
1146.0  47493.03  32401.74  68.22
1156.0  47323.93  30318.43  64.07
1166.0  47127.55  29505.11  62.61
1176.0  47007.28  29136.13  61.98
1186.0  47024.89  28892.74  61.44
1196.0  46427.12  28375.22  61.12
1206.0  45976.77  28146.66  61.22
1216.0  45638.29  28167.07  61.72
1226.0  45257.55  28273.74  62.47
1236.0  44986.64  28421.10  63.18
1246.0  44665.03  28460.12  63.72
1256.0  44348.18  28418.94  64.08
1266.0  44041.29  28273.38  64.20
1276.0  44122.33  28169.55  63.84
1286.0  44180.48  27837.82  63.01
1296.0  43940.70  27085.17  61.64
1306.0  43443.23  25904.01  59.63
1316.0  42852.87  24465.84  57.09
1326.0  42279.85  22847.88  54.04
1336.0  41687.98  21214.58  50.89
1346.0  41087.70  19709.85  47.97
1356.0  40136.77  18211.56  45.37
1366.0  39573.10  16954.74  42.84
1376.0  39448.29  15477.13  39.23
1386.0  39137.19  13121.99  33.53
1396.0  38705.17  10670.34  27.57
1406.0  38283.65  8904.32  23.26
1416.0  38247.12  7967.50  20.83
1426.0  38141.65  7491.84  19.64
1436.0  37993.55  7249.13  19.08
1446.0  37807.56  7152.64  18.92
1456.0  37564.66  7117.25  18.95
1466.0  37374.67  7207.90  19.29
1476.0  37032.66  7413.41  20.02
1486.0  36783.36  7806.20  21.22
1496.0  36446.95  8246.54  22.63
1506.0  36128.16  8379.14  23.19
1516.0  35703.58  8654.12  24.24
1526.0  35355.47  9093.83  25.72
1536.0  35069.58  9450.60  26.95
1546.0  34708.16  9766.36  28.14
1556.0  34457.36  10076.01  29.24
1566.0  34164.86  10321.72  30.21
1576.0  33714.29  10574.06  31.36
1586.0  33359.51  10746.06  32.21
1596.0  32961.11  10851.49  32.92
1606.0  32571.18  10953.40  33.63
1616.0  32156.21  11043.02  34.34
1626.0  31771.93  11121.94  35.01
1636.0  31326.06  11127.20  35.52
1646.0  30840.36  11050.36  35.83
1656.0  30342.57  10909.41  35.95
1666.0  29873.41  10749.51  35.98
1676.0  29453.55  10581.90  35.93
1686.0  29411.45  10473.10  35.61
1696.0  29052.01  10225.52  35.20
1706.0  28613.36  9885.72  34.55
1716.0  27944.47  9440.92  33.78
1726.0  27523.58  9084.35  33.01
1736.0  27167.55  8848.78  32.57
1746.0  26819.99  8589.95  32.03
1756.0  26352.17  8226.58  31.22
1766.0  25950.76  7929.36  30.56
1776.0  25733.96  7768.08  30.19
1786.0  25468.85  7602.01  29.85
1796.0  25144.26  7476.63  29.73
1806.0  24846.88  7388.37  29.74
1816.0  24492.53  7277.65  29.71
1826.0  24049.65  7124.27  29.62
1836.0  23447.37  6889.85  29.38
1846.0  23057.19  6761.61  29.33
1856.0  22644.78  6554.45  28.94
1866.0  22558.57  5792.66  25.68
1876.0  22322.63  4653.78  20.85
1886.0  22034.63  3745.82  17.00
1896.0  21514.98  3189.64  14.83
1906.0  20193.02  2271.81  11.25
1916.0  19960.67  2056.76  10.30
1926.0  19718.96  2006.28  10.17
1936.0  19579.29  1971.94  10.07
1946.0  19560.97  2020.98  10.33
1956.0  19388.55  2062.19  10.64
1966.0  19354.23  2133.07  11.02
1976.0  19201.04  2216.21  11.54
1986.0  18944.59  2278.76  12.03
1996.0  18673.01  2365.44  12.67
2006.0  18514.12  2461.19  13.29
2016.0  18215.64  2533.74  13.91
2026.0  17909.22  2569.00  14.34
2036.0  17652.06  2638.44  14.95
2046.0  17374.82  2683.34  15.44
2056.0  17064.26  2717.15  15.92
2066.0  16791.57  2736.59  16.30
2076.0  16545.25  2784.89  16.83
2086.0  16394.52  2844.83  17.35
2096.0  16100.21  2874.29  17.85
2106.0  15806.06  2887.49  18.27
2116.0  15736.14  2952.19  18.76
2126.0  15554.85  2984.84  19.19
2136.0  15258.51  3001.88  19.67
2146.0  14853.45  2955.10  19.90
2156.0  14604.38  2967.87  20.32
2166.0  14366.07  2937.12  20.44
2176.0  14128.44  2907.14  20.58
2186.0  13980.19  2878.30  20.59
2196.0  13852.76  2848.73  20.56
2206.0  13790.00  2868.69  20.80
2216.0  13655.61  2853.66  20.90
2226.0  13540.23  2771.28  20.47
2236.0  13404.39  2703.98  20.17
2246.0  13162.51  2603.31  19.78
2256.0  12980.74  2505.63  19.30
2266.0  12834.46  2399.43  18.70
2276.0  12713.52  2300.70  18.10
2286.0  12602.64  2207.51  17.52
2296.0  12501.79  2085.96  16.69
2306.0  12136.32  1926.68  15.88
2316.0  11736.06  1877.41  16.00
2326.0  11720.29  1886.49  16.10
2336.0  11665.36  1798.09  15.41
2346.0  11501.61  1721.40  14.97
2356.0  11241.81  1635.11  14.54
2366.0  11163.72  1614.62  14.46
2376.0  10906.36  1524.54  13.98
2386.0  10752.86  1462.99  13.61
2396.0  10611.07  1398.73  13.18
2406.0  10442.46  1352.78  12.95
2416.0  10196.59  1296.66  12.72
2426.0  10071.76  1213.86  12.05
2436.0  9871.11  1185.64  12.01
2446.0  9707.92  1102.29  11.35
2456.0  9553.15  1060.96  11.11
2466.0  9291.20  976.64  10.51
2476.0  9038.48  939.91  10.40
2486.0  8794.17  912.63  10.38
2496.0  8663.70  839.44  9.69
2506.0  9144.96  820.92  8.98
