/*** Spectra Vista SIG Data ***/
name= RS.sig
comm= SIG file reprocesed for matching/overlap;Averaged Ref/Tar of files: RD2S1,RD2S2,RD2S3
data=
346.4  509.60  125.38  24.60
347.9  549.06  124.77  22.72
349.5  608.40  130.94  21.52
351.1  655.20  127.29  19.43
352.6  708.40  132.41  18.69
354.2  752.68  139.74  18.57
355.7  818.30  147.38  18.01
357.3  873.81  149.45  17.10
358.8  891.23  152.62  17.12
360.4  967.31  158.64  16.40
361.9  1009.93  156.48  15.49
363.5  1059.53  154.89  14.62
365.1  1102.67  167.83  15.22
366.6  1156.59  161.00  13.92
368.2  1218.77  162.28  13.32
369.7  1306.00  163.58  12.53
371.3  1379.56  167.92  12.17
372.8  1457.48  174.52  11.97
374.4  1528.58  173.44  11.35
375.9  1575.56  178.63  11.34
377.4  1632.76  174.22  10.67
379.0  1683.54  173.76  10.32
380.5  1741.87  174.60  10.02
382.1  1805.51  173.65  9.62
383.6  1862.60  174.73  9.38
385.2  1949.75  176.00  9.03
386.7  2036.04  174.82  8.59
388.3  2135.96  185.70  8.69
389.8  2212.47  189.77  8.58
391.3  2314.34  194.67  8.41
392.9  2392.65  199.34  8.33
394.4  2474.90  215.34  8.70
395.9  2552.82  219.91  8.61
397.5  2664.75  228.15  8.56
399.0  2774.82  223.51  8.05
400.6  2852.64  224.42  7.87
402.1  2910.24  214.74  7.38
403.6  2965.71  213.14  7.19
405.1  3036.77  215.70  7.10
406.7  3133.76  218.85  6.98
408.2  3234.33  223.05  6.90
409.7  3330.88  225.42  6.77
411.3  3437.91  232.79  6.77
412.8  3528.93  242.69  6.88
414.3  3634.54  249.16  6.86
415.8  3740.00  254.17  6.80
417.4  3868.37  262.87  6.80
418.9  3954.39  264.81  6.70
420.4  4037.85  267.94  6.64
421.9  4106.74  264.42  6.44
423.5  4196.00  270.32  6.44
425.0  4263.51  265.05  6.22
426.5  4364.50  267.68  6.13
428.0  4488.82  269.49  6.00
429.5  4615.58  273.34  5.92
431.1  4756.23  277.09  5.83
432.6  4917.76  282.67  5.75
434.1  5064.68  294.53  5.82
435.6  5199.35  296.64  5.71
437.1  5333.25  306.48  5.75
438.6  5454.84  313.55  5.75
440.1  5584.70  319.97  5.73
441.6  5717.14  325.74  5.70
443.1  5852.25  333.86  5.70
444.7  5982.11  343.32  5.74
446.2  6104.50  343.47  5.63
447.7  6213.60  355.12  5.72
449.2  6315.84  354.82  5.62
450.7  6414.72  356.72  5.56
452.2  6543.45  357.04  5.46
453.7  6682.65  360.09  5.39
455.2  6842.54  365.94  5.35
456.7  7029.44  373.53  5.31
458.2  7231.16  384.62  5.32
459.7  7428.75  396.67  5.34
461.2  7633.63  408.30  5.35
462.7  7815.14  413.25  5.29
464.2  8000.76  425.11  5.31
465.7  8191.53  433.02  5.29
467.2  8352.58  446.54  5.35
468.7  8552.00  453.33  5.30
470.2  8711.17  472.83  5.43
471.7  8854.00  485.61  5.48
473.2  9050.37  486.65  5.38
474.6  9252.88  479.90  5.19
476.1  9378.88  481.03  5.13
477.6  9464.51  481.48  5.09
479.1  9567.20  484.49  5.06
480.6  9658.16  484.12  5.01
482.1  9797.74  487.45  4.98
483.6  9963.22  493.15  4.95
485.1  10140.49  500.51  4.94
486.6  10356.19  505.89  4.88
488.0  10562.50  517.62  4.90
489.5  10784.97  524.28  4.86
491.0  10998.86  538.31  4.89
492.5  11224.98  549.18  4.89
494.0  11462.99  560.69  4.89
495.4  11663.85  569.64  4.88
496.9  11870.36  583.11  4.91
498.4  12074.30  592.37  4.91
499.9  12278.41  601.36  4.90
501.4  12476.75  613.43  4.92
502.8  12664.51  622.74  4.92
504.3  12846.60  631.98  4.92
505.8  13033.73  641.03  4.92
507.2  13172.68  646.87  4.91
508.7  13289.99  652.44  4.91
510.2  13412.81  658.69  4.91
511.6  13494.72  657.17  4.87
513.1  13630.43  657.12  4.82
514.6  13795.53  660.17  4.79
516.0  13946.28  662.20  4.75
517.5  14135.83  666.05  4.71
519.0  14365.19  671.32  4.67
520.5  14579.60  680.71  4.67
521.9  14828.55  690.63  4.66
523.4  15093.49  705.04  4.67
524.8  15349.14  718.37  4.68
526.3  15633.70  728.24  4.66
527.8  15915.89  747.31  4.70
529.2  16178.21  759.38  4.69
530.7  16455.24  778.80  4.73
532.1  16698.15  790.47  4.73
533.6  16994.07  806.82  4.75
535.0  17295.55  822.77  4.76
536.5  17581.25  843.72  4.80
538.0  17895.84  864.06  4.83
539.4  18160.64  881.92  4.86
540.9  18488.86  902.87  4.88
542.3  18738.28  916.83  4.89
543.8  18940.29  930.67  4.91
545.2  19020.35  933.38  4.91
546.6  19057.19  937.54  4.92
548.1  19121.11  940.08  4.92
549.5  19166.91  948.74  4.95
551.0  19217.70  954.67  4.97
552.4  19311.21  959.97  4.97
553.9  19371.38  964.57  4.98
555.3  19461.20  970.46  4.99
556.8  19596.88  988.37  5.04
558.2  19743.75  1000.18  5.07
559.6  19902.71  1016.51  5.11
561.1  20117.50  1037.35  5.16
562.5  20332.52  1066.89  5.25
564.0  20611.34  1097.72  5.33
565.4  20865.50  1127.06  5.40
566.8  21177.73  1169.13  5.52
568.3  21463.05  1208.89  5.63
569.7  21776.78  1255.13  5.76
571.1  22080.65  1304.15  5.91
572.6  22373.82  1355.18  6.06
574.0  22675.95  1410.37  6.22
575.4  22958.44  1469.65  6.40
576.9  23231.09  1531.53  6.59
578.3  23477.03  1598.62  6.81
579.7  23721.74  1665.98  7.02
581.1  23920.49  1742.34  7.28
582.6  24132.47  1822.41  7.55
584.0  24305.80  1897.97  7.81
585.4  24549.94  1988.21  8.10
586.8  24845.17  2085.75  8.39
588.3  25201.80  2192.66  8.70
589.7  25517.70  2293.28  8.99
591.1  25735.55  2392.80  9.30
592.5  25883.00  2483.63  9.60
594.0  25998.42  2576.38  9.91
595.4  26057.54  2671.74  10.25
596.8  26115.38  2766.05  10.59
598.2  26174.55  2863.62  10.94
599.6  26202.06  2965.21  11.32
601.0  26298.70  3078.56  11.71
602.4  26372.18  3191.27  12.10
603.9  26501.77  3313.44  12.50
605.3  26625.41  3439.66  12.92
606.7  26749.80  3565.08  13.33
608.1  26941.18  3707.88  13.76
609.5  27151.69  3853.59  14.19
610.9  27387.74  4012.88  14.65
612.3  27589.20  4172.41  15.12
613.7  27871.80  4344.63  15.59
615.1  28061.64  4501.12  16.04
616.5  28235.16  4661.08  16.51
617.9  28534.12  4853.76  17.01
619.3  28808.15  5052.27  17.54
620.7  29149.14  5278.25  18.11
622.1  29527.66  5427.73  18.38
623.5  29951.83  5544.17  18.51
624.9  30436.35  5661.52  18.60
626.3  30757.12  5765.28  18.74
627.7  30461.43  5803.10  19.05
629.1  30188.34  5906.93  19.57
630.5  30083.03  6068.98  20.17
631.9  30076.12  6265.93  20.83
633.3  30078.24  6441.65  21.42
634.7  30183.54  6628.97  21.96
636.1  30268.81  6753.47  22.31
637.5  30374.19  6857.29  22.58
638.9  30520.15  6955.73  22.79
640.2  30643.60  7035.72  22.96
641.6  30733.56  7087.24  23.06
643.0  30777.50  7109.21  23.10
644.4  30869.16  7128.16  23.09
645.8  30855.38  7125.86  23.09
647.2  31023.20  7167.37  23.10
648.5  31185.15  7206.52  23.11
649.9  31117.13  7227.46  23.23
651.3  31099.80  7277.19  23.40
652.7  31059.00  7317.74  23.56
654.1  30961.56  7159.34  23.12
655.5  30829.51  6932.51  22.49
656.8  30685.81  6715.30  21.88
658.2  30861.69  6594.40  21.37
659.6  31181.89  6512.43  20.89
660.9  31452.29  6418.95  20.41
662.3  31767.46  6315.78  19.88
663.7  32102.70  6189.75  19.28
665.0  32334.98  6065.49  18.76
666.4  32575.38  5950.37  18.27
667.8  32873.84  5859.69  17.82
669.1  33084.01  5776.31  17.46
670.5  33327.47  5720.29  17.16
671.9  33513.12  5672.56  16.93
673.2  33742.50  5671.54  16.81
674.6  33950.66  5692.08  16.77
676.0  34219.05  5757.61  16.83
677.3  34494.18  5861.53  16.99
678.7  34767.13  6018.57  17.31
680.0  35103.31  6265.95  17.85
681.4  35420.13  6606.38  18.65
682.8  35763.00  7057.05  19.73
684.1  36073.44  7644.31  21.19
685.5  36318.59  8366.23  23.04
686.8  36607.26  9214.42  25.17
688.2  36844.31  10158.90  27.57
689.5  36898.97  11152.76  30.23
690.9  36950.15  12197.64  33.01
692.2  37008.15  13263.83  35.84
693.6  37024.93  14346.72  38.75
694.9  37005.38  15355.71  41.50
696.2  37027.13  16342.57  44.14
697.6  37047.86  17259.13  46.59
698.9  37049.76  18139.70  48.96
700.3  37075.62  18970.62  51.17
701.6  37124.24  19743.56  53.18
703.0  37178.40  20462.06  55.04
704.3  37172.20  21053.94  56.64
705.6  37157.22  21610.41  58.16
707.0  37168.46  22116.06  59.50
708.3  37076.04  22512.87  60.72
709.6  36967.81  22880.26  61.89
711.0  36867.73  23157.76  62.81
712.3  36770.31  23416.99  63.68
713.6  36755.88  23695.91  64.47
714.9  36684.64  23934.14  65.24
716.3  36701.44  24181.13  65.89
717.6  36734.04  24437.59  66.53
718.9  36680.73  24593.23  67.05
720.2  36496.25  24644.38  67.53
721.6  36394.28  24716.14  67.91
722.9  36240.12  24765.66  68.34
724.2  36067.30  24767.11  68.67
725.5  35963.70  24803.27  68.97
726.8  35833.96  24792.21  69.19
728.1  35810.80  24817.09  69.30
729.5  35779.10  24822.23  69.38
730.8  35779.13  24850.20  69.45
732.1  35704.25  24848.89  69.60
733.4  35690.92  24869.59  69.68
734.7  35685.89  24866.55  69.68
736.0  35729.66  24915.97  69.73
737.3  35717.44  24937.42  69.82
738.6  35830.21  25047.21  69.91
739.9  36014.88  25245.06  70.10
741.2  36161.58  25383.00  70.19
742.5  36363.94  25617.00  70.45
743.8  36737.66  25981.63  70.72
745.1  37309.08  26500.60  71.03
746.4  37926.98  27045.64  71.31
747.7  38536.99  27570.96  71.54
749.0  39118.92  28074.87  71.77
750.3  39493.02  28309.58  71.68
751.6  39440.80  28235.81  71.59
752.9  39084.79  28003.16  71.65
754.2  38731.25  27753.32  71.66
755.4  38386.91  27488.48  71.61
756.7  38244.09  27454.79  71.79
758.0  38261.36  27551.23  72.01
759.3  38489.95  27799.48  72.23
760.6  38786.44  28135.49  72.54
761.9  39062.28  28440.95  72.81
763.1  39197.21  28608.74  72.99
764.4  39371.54  28815.56  73.19
765.7  39490.75  28973.32  73.37
767.0  39577.16  29092.27  73.51
768.2  39644.64  29207.58  73.67
769.5  39697.68  29302.21  73.81
770.8  39836.32  29456.38  73.94
772.0  39856.44  29509.64  74.04
773.3  39898.95  29612.53  74.22
774.6  39978.84  29730.11  74.36
775.8  40054.79  29793.23  74.38
777.1  40085.96  29833.40  74.42
778.4  40059.57  29796.38  74.38
779.6  39999.54  29825.29  74.56
780.9  39948.00  29809.07  74.62
782.1  39837.20  29747.98  74.67
783.4  39802.88  29773.68  74.80
784.6  39851.08  29819.76  74.83
785.9  40095.40  30111.69  75.10
787.1  40531.58  30543.04  75.36
788.4  40834.19  30774.37  75.36
789.6  40796.10  30585.47  74.97
790.9  40479.11  30227.09  74.67
792.1  40128.24  29923.02  74.57
793.4  39739.41  29632.35  74.57
794.6  39507.48  29409.87  74.44
795.8  39314.07  29242.99  74.38
797.1  39097.95  29089.38  74.40
798.3  38940.83  28981.16  74.42
799.5  38821.14  28913.25  74.48
800.8  38733.05  28831.14  74.44
802.0  38591.76  28742.08  74.48
803.2  38469.72  28624.11  74.41
804.5  38377.94  28548.13  74.39
805.7  38264.87  28452.56  74.36
806.9  38181.95  28377.33  74.32
808.1  38074.65  28313.71  74.36
809.4  38033.33  28290.10  74.38
810.6  37951.55  28251.56  74.44
811.8  37942.61  28249.82  74.45
813.0  37965.80  28277.30  74.48
814.2  37975.49  28323.35  74.58
815.4  38039.93  28374.29  74.59
816.6  38032.65  28377.31  74.61
817.9  38050.16  28372.41  74.57
819.1  37997.24  28286.31  74.44
820.3  37865.18  28161.55  74.37
821.5  37787.61  28084.35  74.32
822.7  37714.41  28017.89  74.29
823.9  37704.87  27997.52  74.25
825.1  37688.07  27961.47  74.19
826.3  37716.38  27955.61  74.12
827.5  37726.06  27938.48  74.06
828.7  37779.60  27911.00  73.88
829.9  37796.29  27892.25  73.80
831.0  37849.02  27921.67  73.77
832.2  37913.75  27962.27  73.75
833.4  37950.44  27977.96  73.72
834.6  37978.13  28019.22  73.78
835.8  38031.53  28053.43  73.76
837.0  38073.26  28135.08  73.90
838.1  38178.69  28239.38  73.97
839.3  38239.24  28311.91  74.04
840.5  38296.24  28381.35  74.11
841.7  38381.58  28510.13  74.28
842.9  38485.06  28649.82  74.44
844.0  38543.94  28737.24  74.56
845.2  38626.85  28865.43  74.73
846.4  38724.98  28940.94  74.73
847.5  38888.12  29101.34  74.83
848.7  39002.30  29217.37  74.91
849.9  39141.74  29311.24  74.88
851.0  39173.78  29320.56  74.85
852.2  39245.07  29327.68  74.73
853.3  39202.67  29289.99  74.71
854.5  39188.19  29284.07  74.73
855.6  39170.88  29285.50  74.76
856.8  39193.80  29334.67  74.85
857.9  39192.81  29335.63  74.85
859.1  39326.60  29424.58  74.82
860.2  39300.24  29415.94  74.85
861.4  39344.78  29444.80  74.84
862.5  39384.29  29474.18  74.84
863.7  39467.66  29516.07  74.79
864.8  39454.45  29531.99  74.85
865.9  39398.65  29507.49  74.89
867.1  39448.45  29513.41  74.82
868.2  39441.53  29501.78  74.80
869.3  39465.67  29501.89  74.75
870.5  39438.89  29443.27  74.66
871.6  39473.54  29462.06  74.64
872.7  39541.37  29508.56  74.63
873.9  39548.50  29504.97  74.60
875.0  39546.05  29484.27  74.56
876.1  39583.15  29449.74  74.40
877.2  39616.79  29435.32  74.30
878.3  39601.98  29394.30  74.22
879.4  39662.11  29392.66  74.11
880.5  39702.60  29370.81  73.98
881.7  39698.10  29310.52  73.83
882.8  39775.46  29297.32  73.66
883.9  39785.32  29255.31  73.53
885.0  39766.55  29150.01  73.30
886.1  39735.85  29066.85  73.15
887.2  39664.66  28876.98  72.80
888.3  39567.00  28764.61  72.70
889.4  39535.02  28627.65  72.41
890.5  39459.91  28542.85  72.33
891.6  39428.33  28470.80  72.21
892.7  39429.01  28398.90  72.03
893.8  39492.50  28427.27  71.98
894.9  39505.51  28384.87  71.85
896.0  39527.49  28306.78  71.61
897.0  39487.40  28284.99  71.63
898.1  39490.45  28240.81  71.51
899.2  39536.22  28214.27  71.36
900.3  39503.73  28125.24  71.20
901.4  39454.09  28027.33  71.04
902.4  39461.49  27990.16  70.93
903.5  39418.10  27903.88  70.79
904.6  39431.18  27878.38  70.70
905.7  39454.64  27829.66  70.54
906.7  39397.52  27796.98  70.56
907.8  39514.80  27769.48  70.28
908.9  39443.33  27672.85  70.16
909.9  39411.21  27588.50  70.00
911.0  39357.50  27493.69  69.86
912.1  39280.99  27367.20  69.67
913.1  39233.48  27269.79  69.51
914.2  39173.92  27132.85  69.26
915.2  39170.79  27070.90  69.11
916.3  39094.50  27006.70  69.08
917.3  39076.47  26933.94  68.93
918.4  39031.30  26770.76  68.59
919.4  39022.48  26685.52  68.38
920.5  39026.74  26563.25  68.06
921.5  39018.63  26484.90  67.88
922.6  38959.72  26338.97  67.61
923.6  39026.05  26263.56  67.30
924.7  39022.50  26171.95  67.07
925.7  39030.84  26058.57  66.76
926.7  39009.32  25945.15  66.51
927.8  39032.57  25815.21  66.14
928.8  39142.62  25754.16  65.80
929.9  39330.10  25686.09  65.31
930.9  39447.46  25701.56  65.15
931.9  39602.61  25692.49  64.88
932.9  39864.58  25748.54  64.59
934.0  39909.81  25629.69  64.22
935.0  39942.68  25489.87  63.82
936.0  39929.50  25365.28  63.53
937.0  39883.94  25200.35  63.18
938.1  39848.52  25039.90  62.84
939.1  39753.89  24903.06  62.64
940.1  39867.76  24806.47  62.22
941.1  39995.43  24775.60  61.95
942.1  40229.45  24740.88  61.50
943.1  40393.76  24723.27  61.21
944.1  40552.56  24671.83  60.84
945.2  40570.32  24557.89  60.53
946.2  40685.67  24393.37  59.96
947.2  40740.25  24274.29  59.58
948.2  40874.09  24195.39  59.19
949.2  40954.06  24052.63  58.73
950.2  41026.00  23880.32  58.21
951.2  41012.16  23740.02  57.89
952.2  41170.94  23585.88  57.29
953.2  41257.13  23493.40  56.94
954.2  41395.95  23362.73  56.44
955.2  41401.94  23213.25  56.07
956.2  41391.82  23078.08  55.76
957.2  41524.97  22944.37  55.25
958.2  41486.28  22862.03  55.11
959.2  41625.00  22820.49  54.82
960.1  41647.94  22719.43  54.55
961.1  41725.78  22728.39  54.47
962.1  41752.50  22643.25  54.23
963.1  41720.60  22643.81  54.27
964.1  41837.60  22640.24  54.11
965.1  41932.95  22662.84  54.05
966.1  41961.44  22630.59  53.93
967.0  42058.17  22672.44  53.91
968.0  42094.69  22643.82  53.79
969.0  42115.20  22628.36  53.73
970.0  42092.26  22636.09  53.78
971.0  42266.18  22687.78  53.68
971.9  42275.33  22734.99  53.78
972.9  42388.85  22661.48  53.46
973.9  42492.13  22704.40  53.43
974.9  42580.28  22695.12  53.30
975.8  42630.52  22670.99  53.18
976.8  42806.43  22668.11  52.95
977.8  42848.34  22655.99  52.87
978.8  42868.95  22737.46  53.04
979.7  43050.58  22772.07  52.90
981.4  43484.76  22179.21  51.00
985.3  43466.28  22211.73  51.10
989.3  43739.41  22445.87  51.32
993.3  44088.36  22736.67  51.57
997.2  44246.85  22949.59  51.87
1001.2  44240.69  23166.48  52.36
1005.2  44147.66  23396.63  53.00
1009.1  44170.72  23724.93  53.71
1013.1  44298.35  24128.14  54.47
1017.1  44409.64  24532.64  55.24
1021.0  44418.65  24867.05  55.98
1025.0  44431.92  25172.59  56.65
1029.0  44310.95  25392.74  57.31
1032.9  44196.36  25619.53  57.97
1036.9  44214.81  25932.45  58.65
1040.9  44317.48  26309.73  59.37
1044.8  44471.57  26719.57  60.08
1048.8  44586.22  27092.95  60.77
1052.7  44660.98  27405.90  61.36
1056.7  44664.90  27620.57  61.84
1060.7  44652.74  27782.05  62.22
1064.6  44643.90  27907.63  62.51
1068.6  44545.19  27944.66  62.73
1072.5  44448.63  27917.35  62.81
1076.5  44390.31  27857.40  62.76
1080.4  44363.13  27797.44  62.66
1084.4  44428.99  27747.87  62.45
1088.3  44526.89  27654.01  62.11
1092.3  44515.11  27469.17  61.71
1096.2  44485.25  27258.71  61.28
1100.2  44489.30  27068.39  60.84
1104.1  44387.15  26788.41  60.35
1108.1  44344.78  26528.99  59.82
1112.0  44255.25  26226.08  59.26
1116.0  44078.91  25814.80  58.56
1119.9  43920.46  25355.19  57.73
1123.9  43980.05  24917.65  56.66
1127.8  43933.44  24257.28  55.21
1131.8  43891.20  23401.02  53.32
1135.7  43904.71  22403.57  51.03
1139.6  43873.24  21304.16  48.56
1143.6  43814.30  20254.25  46.23
1147.5  43764.96  19362.00  44.24
1151.4  43600.54  18620.56  42.71
1155.4  43567.43  18160.44  41.68
1159.3  43548.37  17867.30  41.03
1163.2  43379.84  17612.04  40.60
1167.2  43333.14  17464.00  40.30
1171.1  43320.14  17366.39  40.09
1175.0  43247.45  17268.59  39.93
1179.0  43203.54  17175.66  39.76
1182.9  43281.26  17124.47  39.57
1186.8  43262.79  17047.46  39.40
1190.7  43059.97  16900.25  39.25
1194.7  42822.73  16761.46  39.14
1198.6  42602.18  16666.65  39.12
1202.5  42456.57  16619.50  39.14
1206.4  42335.53  16611.27  39.24
1210.3  42230.32  16631.22  39.38
1214.2  42126.94  16673.84  39.58
1218.2  41984.08  16716.81  39.82
1222.1  41854.50  16777.83  40.09
1226.0  41760.57  16863.38  40.38
1229.9  41673.90  16935.62  40.64
1233.8  41576.55  16994.03  40.87
1237.7  41528.30  17066.61  41.10
1241.6  41457.25  17124.20  41.31
1245.5  41309.15  17138.13  41.49
1249.4  41175.26  17146.38  41.64
1253.3  41058.30  17154.88  41.78
1257.2  40978.33  17186.14  41.94
1261.1  40873.57  17191.76  42.06
1265.0  40757.89  17162.79  42.11
1268.9  40587.74  17083.94  42.09
1272.8  40626.75  17069.60  42.02
1276.7  40780.33  17094.03  41.92
1280.6  40842.56  17050.75  41.75
1284.5  40748.73  16909.89  41.50
1288.4  40697.88  16763.40  41.19
1292.3  40562.50  16559.58  40.82
1296.2  40411.46  16320.19  40.39
1300.1  40239.63  16037.65  39.86
1303.9  40009.73  15693.25  39.22
1307.8  39785.54  15320.02  38.51
1311.7  39554.21  14919.84  37.72
1315.6  39326.35  14504.06  36.88
1319.5  39086.11  14052.65  35.95
1323.3  38870.69  13591.68  34.97
1327.2  38681.53  13136.15  33.96
1331.1  38474.56  12673.82  32.94
1335.0  38203.08  12198.13  31.93
1338.8  38009.09  11776.82  30.98
1342.7  37876.27  11408.81  30.12
1346.5  37598.34  11013.98  29.29
1350.4  37400.07  10649.42  28.47
1354.3  37094.65  10278.21  27.71
1358.1  36731.71  9908.87  26.98
1362.0  36487.36  9576.24  26.25
1365.8  36370.47  9276.96  25.51
1369.7  36432.94  8988.42  24.67
1373.5  36366.82  8580.82  23.60
1377.4  36166.21  8038.35  22.23
1381.2  35990.96  7414.65  20.60
1385.1  35936.27  6792.11  18.90
1389.0  35813.45  6173.68  17.24
1392.8  35598.92  5563.09  15.63
1396.6  35460.61  5021.01  14.16
1400.5  35253.63  4556.31  12.92
1404.3  35072.57  4185.70  11.93
1408.2  35016.72  3908.90  11.16
1412.0  34945.02  3690.84  10.56
1415.8  34962.39  3531.17  10.10
1419.6  34891.95  3406.11  9.76
1423.5  34842.23  3313.49  9.51
1427.3  34796.45  3243.59  9.32
1431.1  34758.75  3193.00  9.19
1434.9  34669.05  3151.52  9.09
1438.8  34606.94  3126.79  9.04
1442.6  34573.84  3112.72  9.00
1446.4  34441.31  3087.94  8.97
1450.2  34332.12  3071.66  8.95
1454.0  34220.52  3065.08  8.96
1457.8  34188.19  3072.34  8.99
1461.6  34155.00  3087.61  9.04
1465.4  34045.70  3102.79  9.11
1469.2  33870.20  3128.13  9.24
1473.0  33726.92  3165.79  9.39
1476.8  33664.28  3223.37  9.58
1480.7  33601.58  3290.88  9.79
1484.4  33488.64  3363.76  10.04
1488.2  33386.04  3460.28  10.36
1492.0  33257.25  3555.78  10.69
1495.8  33142.20  3647.59  11.01
1499.6  33034.11  3722.37  11.27
1503.4  32933.47  3772.91  11.46
1507.2  32852.74  3808.37  11.59
1510.9  32722.34  3850.33  11.77
1514.7  32573.11  3899.53  11.97
1518.5  32453.90  3962.79  12.21
1522.3  32317.90  4030.46  12.47
1526.0  32200.64  4097.70  12.73
1529.8  32127.61  4179.78  13.01
1533.6  32011.66  4249.42  13.27
1537.3  31894.88  4319.40  13.54
1541.1  31782.08  4396.69  13.83
1544.8  31651.20  4474.40  14.14
1548.6  31528.46  4543.56  14.41
1552.4  31450.00  4605.99  14.65
1556.1  31366.15  4655.32  14.84
1559.9  31270.43  4707.40  15.05
1563.6  31150.17  4771.63  15.32
1567.3  31046.10  4847.72  15.61
1571.1  30855.35  4911.32  15.92
1574.8  30723.08  4980.87  16.21
1578.6  30633.26  5043.46  16.46
1582.3  30519.48  5084.59  16.66
1586.0  30400.45  5123.45  16.85
1589.8  30269.89  5153.65  17.03
1593.5  30123.48  5180.31  17.20
1597.2  29998.09  5216.57  17.39
1600.9  29883.71  5254.56  17.58
1604.7  29753.95  5289.01  17.78
1608.4  29639.51  5328.49  17.98
1612.1  29489.62  5353.88  18.16
1615.8  29365.23  5381.42  18.33
1619.5  29298.37  5424.11  18.51
1623.2  29161.12  5451.62  18.69
1626.9  29003.45  5468.87  18.86
1630.6  28846.40  5486.14  19.02
1634.3  28721.00  5507.40  19.18
1638.0  28599.28  5517.17  19.29
1641.7  28456.49  5510.99  19.37
1645.4  28299.47  5491.04  19.40
1649.1  28138.66  5469.16  19.44
1652.8  28008.70  5451.92  19.47
1656.4  27859.80  5425.58  19.47
1660.1  27720.43  5405.04  19.50
1663.8  27551.22  5380.46  19.53
1667.5  27406.07  5357.66  19.55
1671.1  27282.14  5332.31  19.55
1674.8  27100.13  5292.80  19.53
1678.5  27060.12  5275.39  19.50
1682.1  27085.37  5257.88  19.41
1685.8  27087.74  5235.42  19.33
1689.5  26985.46  5190.72  19.24
1693.1  26859.21  5140.53  19.14
1696.8  26718.75  5087.25  19.04
1700.4  26575.97  5026.81  18.91
1704.0  26457.91  4966.59  18.77
1707.7  26210.69  4877.09  18.61
1711.3  25940.59  4780.75  18.43
1715.0  25755.85  4699.11  18.24
1718.6  25603.66  4621.08  18.05
1722.2  25471.82  4547.11  17.85
1725.9  25346.15  4472.90  17.65
1729.5  25225.17  4413.74  17.50
1733.1  25122.33  4370.98  17.40
1736.7  25028.77  4338.99  17.34
1740.3  24869.68  4284.66  17.23
1744.0  24796.20  4231.33  17.06
1747.5  24670.34  4163.53  16.88
1751.2  24460.97  4082.80  16.69
1754.8  24300.77  4010.78  16.50
1758.4  24168.99  3944.72  16.32
1762.0  24004.67  3882.12  16.17
1765.5  23878.06  3836.74  16.07
1769.1  23824.80  3811.20  16.00
1772.7  23745.17  3782.41  15.93
1776.3  23631.64  3742.51  15.84
1779.9  23517.13  3706.61  15.76
1783.5  23453.36  3682.80  15.70
1787.0  23338.16  3649.38  15.64
1790.6  23194.11  3620.86  15.61
1794.2  23099.94  3608.42  15.62
1797.8  23019.59  3598.38  15.63
1801.3  22943.45  3593.73  15.66
1804.9  22821.75  3577.00  15.67
1808.4  22758.56  3567.56  15.68
1812.0  22651.25  3556.65  15.70
1815.5  22537.46  3537.09  15.69
1819.1  22377.91  3507.98  15.68
1822.6  22230.86  3486.29  15.68
1826.2  22108.08  3473.29  15.71
1829.7  21962.63  3446.30  15.69
1833.2  21769.52  3403.93  15.64
1836.8  21568.82  3359.12  15.57
1840.3  21408.35  3324.42  15.53
1843.8  21283.15  3301.95  15.51
1847.3  21175.36  3288.97  15.53
1850.8  21026.88  3259.20  15.50
1854.3  20829.70  3211.09  15.42
1857.8  20716.80  3142.53  15.17
1861.3  20743.52  3032.40  14.62
1864.8  20771.48  2869.50  13.81
1868.3  20668.83  2661.34  12.88
1871.8  20505.60  2421.76  11.81
1875.3  20412.67  2222.53  10.89
1878.8  20386.82  2064.98  10.13
1882.3  20318.80  1903.42  9.37
1885.8  20165.84  1769.49  8.77
1889.3  19976.70  1659.86  8.31
1892.7  19815.25  1587.82  8.01
1896.2  19650.94  1543.52  7.85
1899.7  19441.16  1525.44  7.85
1901.7  18493.24  932.70  5.04
1904.5  18663.12  929.28  4.98
1907.2  18605.75  913.58  4.91
1910.0  18464.96  881.96  4.78
1912.7  18451.36  854.04  4.63
1915.5  18338.72  859.30  4.69
1918.2  18231.61  851.64  4.67
1921.0  18078.76  825.20  4.56
1923.7  18082.37  825.97  4.57
1926.5  18028.91  830.45  4.61
1929.2  17989.40  819.84  4.56
1932.0  17961.44  823.71  4.59
1934.7  17922.05  813.98  4.54
1937.4  17800.47  801.26  4.50
1940.2  17730.06  816.48  4.61
1942.9  17801.07  815.05  4.58
1945.6  17808.94  818.42  4.60
1948.3  17731.12  826.29  4.66
1951.1  17698.80  821.73  4.64
1953.8  17700.00  820.00  4.63
1956.5  17568.67  832.61  4.74
1959.2  17632.03  838.20  4.75
1961.9  17647.56  835.39  4.73
1964.6  17543.58  856.80  4.88
1967.3  17598.27  870.22  4.94
1970.0  17419.60  851.49  4.89
1972.8  17335.24  859.95  4.96
1975.5  17419.52  877.03  5.03
1978.2  17336.04  877.95  5.06
1980.9  17221.82  895.88  5.20
1983.5  17185.34  900.61  5.24
1986.2  17183.55  891.43  5.19
1988.9  17157.36  906.95  5.29
1991.6  17017.92  909.55  5.34
1994.3  16893.86  900.20  5.33
1997.0  16913.63  928.44  5.49
1999.7  16876.79  939.04  5.56
2002.3  16857.27  938.75  5.57
2005.0  16785.35  943.55  5.62
2007.7  16706.93  950.78  5.69
2010.4  16656.07  965.94  5.80
2013.0  16600.58  972.99  5.86
2015.7  16495.88  964.27  5.85
2018.4  16401.61  971.08  5.92
2021.0  16371.00  987.89  6.03
2023.7  16264.64  980.85  6.03
2026.4  16195.83  983.96  6.08
2029.0  16138.97  995.33  6.17
2031.7  16029.65  986.77  6.16
2034.3  16012.75  1003.67  6.27
2037.0  15932.90  1031.23  6.47
2039.6  15864.39  1016.55  6.41
2042.3  15822.15  1003.51  6.34
2044.9  15747.27  1020.09  6.48
2047.5  15719.22  1021.02  6.50
2050.2  15638.00  1013.60  6.48
2052.8  15596.00  1032.27  6.62
2055.4  15487.61  1030.08  6.65
2058.1  15363.60  1022.00  6.65
2060.7  15311.01  1040.67  6.80
2063.3  15243.07  1046.86  6.87
2065.9  15200.63  1032.91  6.80
2068.6  15142.00  1036.64  6.85
2071.2  15102.27  1049.97  6.95
2073.8  15013.06  1046.58  6.97
2076.4  14939.89  1053.44  7.05
2079.0  14937.96  1055.62  7.07
2081.6  14955.68  1064.38  7.12
2084.2  14929.44  1082.58  7.25
2086.8  14795.01  1071.94  7.25
2089.4  14708.12  1065.64  7.25
2092.1  14645.50  1084.22  7.40
2094.7  14574.18  1087.63  7.46
2097.2  14543.50  1087.06  7.47
2099.8  14569.24  1096.91  7.53
2102.4  14455.51  1081.41  7.48
2105.0  14315.55  1085.85  7.59
2107.6  14281.54  1108.00  7.76
2110.2  14245.28  1099.73  7.72
2112.8  14225.04  1107.16  7.78
2115.3  14222.61  1127.72  7.93
2117.9  14223.97  1133.59  7.97
2120.5  14225.20  1126.16  7.92
2123.1  14136.53  1138.80  8.06
2125.6  14079.43  1146.93  8.15
2128.2  14012.88  1117.99  7.98
2130.8  13940.55  1138.80  8.17
2133.3  13889.33  1157.69  8.34
2135.9  13802.30  1146.27  8.30
2138.4  13704.95  1138.40  8.31
2141.0  13601.55  1134.20  8.34
2143.6  13585.34  1142.37  8.41
2146.1  13439.94  1145.95  8.53
2148.7  13282.54  1136.49  8.56
2151.2  13302.67  1137.16  8.55
2153.8  13324.47  1154.77  8.67
2156.3  13227.98  1152.78  8.71
2158.8  13160.05  1143.92  8.69
2161.4  13128.93  1149.85  8.76
2163.9  13034.58  1157.71  8.88
2166.4  12973.85  1140.29  8.79
2169.0  12959.07  1138.32  8.78
2171.5  12876.28  1143.25  8.88
2174.0  12786.55  1127.53  8.82
2176.5  12767.30  1138.19  8.91
2179.1  12718.27  1136.40  8.94
2181.6  12644.21  1137.58  9.00
2184.1  12612.60  1144.73  9.08
2186.6  12631.79  1125.62  8.91
2189.1  12551.10  1128.85  8.99
2191.6  12501.53  1146.60  9.17
2194.1  12512.72  1145.98  9.16
2196.6  12513.32  1142.41  9.13
2199.2  12564.98  1162.78  9.25
2201.7  12503.60  1161.66  9.29
2204.1  12450.01  1132.49  9.10
2206.6  12458.20  1148.84  9.22
2209.1  12429.94  1148.12  9.24
2211.6  12413.54  1135.66  9.15
2214.1  12385.83  1141.77  9.22
2216.6  12340.79  1133.17  9.18
2219.1  12355.98  1131.90  9.16
2221.6  12303.15  1147.07  9.32
2224.0  12230.10  1136.65  9.29
2226.5  12198.83  1104.72  9.06
2229.0  12234.63  1105.20  9.03
2231.5  12152.59  1090.27  8.97
2233.9  12137.64  1078.82  8.89
2236.4  12131.98  1079.51  8.90
2238.9  12024.13  1059.17  8.81
2241.3  12068.10  1061.06  8.79
2243.8  12017.57  1070.13  8.90
2246.2  11870.35  1049.28  8.84
2248.7  11882.39  1006.59  8.47
2251.2  11860.53  1000.55  8.44
2253.6  11784.96  1006.08  8.54
2256.1  11773.44  986.88  8.38
2258.5  11793.92  977.07  8.28
2260.9  11696.75  962.59  8.23
2263.4  11668.53  946.79  8.11
2265.8  11678.48  956.54  8.19
2268.3  11583.48  945.41  8.16
2270.7  11653.18  923.76  7.93
2273.1  11608.55  910.18  7.84
2275.6  11523.84  897.28  7.79
2278.0  11553.06  882.69  7.64
2280.4  11529.61  901.79  7.82
2282.8  11402.06  905.97  7.95
2285.3  11435.59  872.28  7.63
2287.7  11531.47  889.04  7.71
2290.1  11440.95  856.55  7.49
2292.5  11408.96  817.48  7.17
2294.9  11404.51  844.34  7.40
2297.3  11303.39  833.19  7.37
2299.7  11233.01  804.14  7.16
2302.1  11231.11  804.00  7.16
2304.5  11113.20  778.77  7.01
2306.9  10995.60  752.64  6.84
2309.3  10932.15  761.46  6.97
2311.7  10856.55  754.91  6.95
2314.1  10708.33  741.72  6.93
2316.5  10641.94  769.61  7.23
2318.9  10674.03  771.25  7.23
2321.3  10672.73  759.32  7.11
2323.7  10642.23  758.73  7.13
2326.1  10606.96  742.86  7.00
2328.4  10691.58  743.15  6.95
2330.8  10736.25  741.65  6.91
2333.2  10617.06  741.30  6.98
2335.6  10582.60  716.86  6.77
2337.9  10642.00  710.86  6.68
2340.3  10592.40  705.32  6.66
2342.7  10507.23  695.40  6.62
2345.0  10502.01  702.12  6.69
2347.4  10493.25  684.25  6.52
2349.7  10277.63  657.84  6.40
2352.1  10236.25  668.98  6.54
2354.4  10290.21  674.84  6.56
2356.8  10243.45  653.26  6.38
2359.2  10187.67  650.00  6.38
2361.5  10122.93  667.59  6.59
2363.8  10144.75  663.14  6.54
2366.2  10159.49  647.29  6.37
2368.5  10097.05  637.83  6.32
2370.9  10118.68  603.90  5.97
2373.2  10072.53  617.54  6.13
2375.5  9932.38  633.50  6.38
2377.9  9918.93  622.97  6.28
2380.2  9923.89  617.00  6.22
2382.5  9856.28  582.04  5.91
2384.8  9822.88  578.45  5.89
2387.2  9807.99  601.67  6.13
2389.5  9759.69  593.36  6.08
2391.8  9772.85  583.07  5.97
2394.1  9716.63  587.00  6.04
2396.4  9652.48  575.76  5.96
2398.7  9714.10  563.49  5.80
2401.0  9598.25  576.92  6.01
2403.3  9511.80  572.70  6.02
2405.6  9521.83  543.15  5.70
2407.9  9458.88  556.11  5.88
2410.2  9400.00  564.84  6.01
2412.5  9350.27  536.97  5.74
2414.8  9330.30  549.45  5.89
2417.1  9280.68  547.14  5.90
2419.4  9294.64  517.53  5.57
2421.7  9214.94  550.20  5.97
2424.0  9156.02  542.42  5.92
2426.2  9223.40  513.60  5.57
2428.5  9129.27  521.00  5.71
2430.8  9112.40  494.13  5.42
2433.1  9071.93  510.76  5.63
2435.4  8991.17  497.96  5.54
2437.6  8963.19  460.66  5.14
2439.9  8866.09  464.17  5.24
2442.2  8873.80  477.82  5.38
2444.4  8827.50  480.53  5.44
2446.7  8812.56  474.99  5.39
2448.9  8870.66  477.68  5.38
2451.2  8802.92  490.71  5.57
2453.4  8732.64  474.10  5.43
2455.7  8702.87  468.29  5.38
2457.9  8608.05  474.16  5.51
2460.2  8594.01  450.05  5.24
2462.4  8611.20  461.76  5.36
2464.7  8503.63  454.20  5.34
2466.9  8416.62  423.72  5.03
2469.2  8471.54  447.24  5.28
2471.4  8370.38  452.99  5.41
2473.6  8261.63  415.09  5.02
2475.9  8256.69  433.49  5.25
2478.1  8211.66  441.78  5.38
2480.3  8173.00  387.54  4.74
2482.5  8177.69  431.28  5.27
2484.8  8119.06  434.48  5.35
2487.0  8110.30  382.68  4.72
2489.2  8058.48  407.07  5.05
2491.4  7946.29  427.80  5.38
2493.6  7987.26  391.92  4.91
2495.8  7981.68  398.55  4.99
2498.0  7985.07  397.22  4.97
2500.2  7961.63  376.32  4.73
2502.4  8125.20  399.60  4.92
2504.6  8272.59  369.34  4.46
2506.8  8348.61  334.47  4.01
