/*** Spectra Vista SIG Data ***/
name= T1.sig
comm= Resampled spectral data SIG file reprocesed for matching/overlap;Averaged Ref/Tar of files: GD3T1,GD3T2,GD3T3
data=
346.0  598.78  126.55  21.13
356.0  924.17  142.97  15.47
366.0  1234.61  159.37  12.91
376.0  1691.57  173.36  10.25
386.0  2110.32  167.47  7.94
396.0  2699.64  218.39  8.09
406.0  3258.06  218.72  6.71
416.0  3980.12  274.46  6.90
426.0  4560.62  304.22  6.67
436.0  5560.57  352.44  6.34
446.0  6459.13  429.96  6.66
456.0  7345.42  524.35  7.14
466.0  8824.96  645.21  7.31
476.0  10121.58  770.38  7.61
486.0  10943.49  845.09  7.72
496.0  12761.25  1113.90  8.73
506.0  14311.81  1632.12  11.40
516.0  15112.04  2411.84  15.96
526.0  16957.18  3504.95  20.67
536.0  19355.60  4579.04  23.66
546.0  21330.59  5409.04  25.36
556.0  21581.55  5670.12  26.27
566.0  23226.44  5938.36  25.57
576.0  25810.52  6058.55  23.47
586.0  27755.51  6055.82  21.82
596.0  29194.08  6147.59  21.06
606.0  29534.45  5951.17  20.15
616.0  31318.23  5755.18  18.38
626.0  34410.58  6307.21  18.33
636.0  34069.21  6001.10  17.61
646.0  34679.65  4889.27  14.10
656.0  34069.42  4131.10  12.13
666.0  35802.93  3552.75  9.92
676.0  37841.78  3433.99  9.07
686.0  40854.13  4920.41  12.04
696.0  41747.28  9948.59  23.83
706.0  41971.06  15773.94  37.58
716.0  41223.34  19560.88  47.45
726.0  40067.78  21589.96  53.88
736.0  39511.29  22491.18  56.92
746.0  41985.01  24494.48  58.34
756.0  42844.63  25528.14  59.58
766.0  44461.06  26661.22  59.97
776.0  45318.27  27358.50  60.37
786.0  45304.05  27503.55  60.71
796.0  44083.17  27157.01  61.60
806.0  42558.06  26426.05  62.09
816.0  42205.19  26230.36  62.15
826.0  41881.04  25931.55  61.92
836.0  42513.48  25839.54  60.78
846.0  43677.73  26432.10  60.52
856.0  44639.93  27033.37  60.56
866.0  45173.91  27258.86  60.34
876.0  45452.84  27225.75  59.90
886.0  45709.40  27085.63  59.26
896.0  45235.90  26427.53  58.42
906.0  45023.00  25960.66  57.66
916.0  44495.20  25174.93  56.58
926.0  44269.25  24141.69  54.53
936.0  45413.73  23391.51  51.51
946.0  46396.61  22408.47  48.30
956.0  47429.46  21118.53  44.53
966.0  48326.20  20668.72  42.77
976.0  49108.57  21047.80  42.86
986.0  50490.65  22315.15  44.20
996.0  50607.35  22653.00  44.76
1006.0  50486.13  23125.15  45.80
1016.0  50803.76  24078.19  47.39
1026.0  50772.47  24880.59  49.00
1036.0  50488.61  25597.37  50.70
1046.0  50910.83  26549.60  52.15
1056.0  51254.42  27247.38  53.16
1066.0  51336.62  27537.01  53.64
1076.0  51162.22  27440.57  53.63
1086.0  51303.09  27200.41  53.02
1096.0  51344.30  26656.66  51.92
1106.0  51211.90  25944.06  50.66
1116.0  50831.30  25052.19  49.28
1126.0  50674.44  23790.79  46.95
1136.0  50616.91  21587.70  42.65
1146.0  50531.75  19088.70  37.78
1156.0  50358.44  17567.20  34.88
1166.0  50175.54  16955.34  33.79
1176.0  50092.24  16673.40  33.29
1186.0  50160.75  16489.47  32.87
1196.0  49589.85  16174.57  32.62
1206.0  49136.73  16053.78  32.67
1216.0  48856.16  16100.88  32.96
1226.0  48538.40  16214.95  33.41
1236.0  48332.55  16349.60  33.83
1246.0  48044.92  16407.65  34.15
1256.0  47756.51  16425.83  34.39
1266.0  47442.71  16326.84  34.41
1276.0  47551.66  16255.36  34.18
1286.0  47606.03  16015.94  33.64
1296.0  47326.24  15502.79  32.76
1306.0  46758.50  14701.69  31.44
1316.0  46095.57  13726.93  29.78
1326.0  45453.96  12631.83  27.79
1336.0  44765.54  11583.14  25.88
1346.0  44091.89  10648.85  24.15
1356.0  43065.01  9802.42  22.76
1366.0  42453.65  9034.69  21.28
1376.0  42338.17  8065.24  19.05
1386.0  41985.88  6653.64  15.85
1396.0  41548.36  5238.40  12.61
1406.0  41106.41  4263.93  10.37
1416.0  41061.27  3735.18  9.10
1426.0  40954.01  3462.33  8.45
1436.0  40796.14  3336.96  8.18
1446.0  40594.32  3269.42  8.05
1456.0  40330.62  3242.90  8.04
1466.0  40125.74  3278.11  8.17
1476.0  39754.25  3370.85  8.48
1486.0  39484.92  3563.52  9.03
1496.0  39151.21  3804.28  9.72
1506.0  38800.67  3938.53  10.15
1516.0  38385.61  4060.94  10.58
1526.0  38038.86  4192.94  11.02
1536.0  37757.73  4332.25  11.47
1546.0  37407.06  4541.74  12.14
1556.0  37137.95  4741.81  12.77
1566.0  36823.70  4889.57  13.28
1576.0  36372.01  5057.43  13.90
1586.0  36009.48  5165.78  14.35
1596.0  35619.37  5245.55  14.73
1606.0  35232.08  5319.25  15.10
1616.0  34829.65  5377.73  15.44
1626.0  34452.68  5435.57  15.78
1636.0  34007.58  5466.58  16.07
1646.0  33523.68  5463.78  16.30
1656.0  33037.62  5435.77  16.45
1666.0  32548.04  5385.05  16.54
1676.0  32123.29  5304.29  16.51
1686.0  32117.51  5240.81  16.32
1696.0  31764.57  5095.05  16.04
1706.0  31316.98  4901.91  15.65
1716.0  30611.05  4654.76  15.21
1726.0  30177.81  4443.87  14.73
1736.0  29812.17  4322.66  14.50
1746.0  29439.81  4187.00  14.22
1756.0  28928.41  3992.47  13.80
1766.0  28491.94  3832.17  13.45
1776.0  28263.25  3745.02  13.25
1786.0  27973.79  3660.24  13.08
1796.0  27612.53  3589.79  13.00
1806.0  27286.01  3552.92  13.02
1816.0  26879.26  3507.28  13.05
1826.0  26408.56  3441.14  13.03
1836.0  25765.82  3317.63  12.88
1846.0  25402.19  3172.47  12.49
1856.0  25067.72  2950.40  11.77
1866.0  24868.79  2682.25  10.79
1876.0  24488.38  2234.34  9.12
1886.0  24233.30  1783.90  7.36
1896.0  23683.96  1499.40  6.33
1906.0  22096.75  845.21  3.83
1916.0  21802.32  804.70  3.69
1926.0  21588.87  778.51  3.61
1936.0  21449.43  786.10  3.66
1946.0  21420.23  804.02  3.75
1956.0  21201.75  831.46  3.92
1966.0  21198.12  866.22  4.09
1976.0  21006.67  909.38  4.33
1986.0  20732.55  936.80  4.52
1996.0  20450.49  980.56  4.79
2006.0  20269.19  1019.96  5.03
2016.0  19957.87  1054.79  5.29
2026.0  19629.85  1094.06  5.57
2036.0  19319.95  1112.59  5.76
2046.0  19073.35  1138.98  5.97
2056.0  18736.02  1159.32  6.19
2066.0  18425.00  1162.88  6.31
2076.0  18163.31  1207.61  6.65
2086.0  17998.96  1226.68  6.82
2096.0  17698.67  1247.05  7.05
2106.0  17393.37  1267.67  7.29
2116.0  17301.34  1294.41  7.48
2126.0  17117.10  1328.37  7.76
2136.0  16805.93  1331.80  7.92
2146.0  16338.81  1329.38  8.14
2156.0  16108.43  1324.08  8.22
2166.0  15818.08  1320.99  8.35
2176.0  15571.16  1309.11  8.41
2186.0  15407.91  1318.05  8.55
2196.0  15291.27  1308.12  8.55
2206.0  15252.10  1302.42  8.54
2216.0  15137.72  1287.90  8.51
2226.0  14957.58  1250.40  8.36
2236.0  14828.49  1226.68  8.27
2246.0  14572.63  1170.47  8.03
2256.0  14413.52  1106.89  7.68
2266.0  14283.01  1053.87  7.38
2276.0  14142.85  1014.76  7.18
2286.0  14066.30  971.08  6.90
2296.0  13956.39  901.55  6.46
2306.0  13536.25  832.67  6.15
2316.0  13130.37  792.36  6.03
2326.0  13082.91  791.81  6.05
2336.0  13030.52  771.83  5.92
2346.0  12874.44  712.73  5.54
2356.0  12605.38  682.50  5.41
2366.0  12490.11  654.37  5.24
2376.0  12262.88  639.67  5.22
2386.0  12077.58  602.45  4.99
2396.0  11871.57  572.05  4.82
2406.0  11728.43  536.13  4.57
2416.0  11508.86  534.17  4.64
2426.0  11344.58  502.01  4.43
2436.0  11091.32  492.70  4.44
2446.0  10929.32  444.32  4.07
2456.0  10711.77  428.52  4.00
2466.0  10484.26  400.47  3.82
2476.0  10216.57  398.96  3.91
2486.0  9941.47  366.77  3.69
2496.0  9864.73  383.06  3.88
2506.0  10308.86  360.69  3.50
