/*** Spectra Vista SIG Data ***/
name= B.sig
comm= Averaged Ref/Tar of files: B1,B2,B3
data=
346.4  509.60  101.92  20.00
347.9  549.06  95.80  17.45
349.5  608.40  96.09  15.79
351.1  655.20  98.59  15.05
352.6  708.40  104.15  14.70
354.2  752.68  107.34  14.26
355.7  818.30  103.72  12.68
357.3  873.81  116.51  13.33
358.8  891.23  109.04  12.24
360.4  967.31  115.84  11.98
361.9  1009.93  120.73  11.95
363.5  1059.53  121.42  11.46
365.1  1102.67  116.97  10.61
366.6  1156.59  115.08  9.95
368.2  1218.77  124.90  10.25
369.7  1306.00  117.98  9.03
371.3  1379.56  124.24  9.01
372.8  1457.48  128.37  8.81
374.4  1528.58  128.16  8.38
375.9  1575.56  128.87  8.18
377.4  1632.76  133.13  8.15
379.0  1683.54  134.09  7.96
380.5  1741.87  130.08  7.47
382.1  1805.51  127.26  7.05
383.6  1862.60  123.23  6.62
385.2  1949.75  123.93  6.36
386.7  2036.04  131.04  6.44
388.3  2135.96  129.72  6.07
389.8  2212.47  133.59  6.04
391.3  2314.34  138.51  5.98
392.9  2392.65  145.29  6.07
394.4  2474.90  156.29  6.32
395.9  2552.82  166.21  6.51
397.5  2664.75  168.82  6.34
399.0  2774.82  171.39  6.18
400.6  2852.64  169.80  5.95
402.1  2910.24  164.77  5.66
403.6  2965.71  161.11  5.43
405.1  3036.77  161.78  5.33
406.7  3133.76  167.55  5.35
408.2  3234.33  176.42  5.45
409.7  3330.88  177.11  5.32
411.3  3437.91  190.33  5.54
412.8  3528.93  191.81  5.44
414.3  3634.54  201.35  5.54
415.8  3740.00  211.33  5.65
417.4  3868.37  215.89  5.58
418.9  3954.39  223.31  5.65
420.4  4037.85  227.65  5.64
421.9  4106.74  230.38  5.61
423.5  4196.00  235.68  5.62
425.0  4263.51  237.34  5.57
426.5  4364.50  235.64  5.40
428.0  4488.82  237.54  5.29
429.5  4615.58  244.90  5.31
431.1  4756.23  250.78  5.27
432.6  4917.76  258.13  5.25
434.1  5064.68  267.19  5.28
435.6  5199.35  276.06  5.31
437.1  5333.25  283.92  5.32
438.6  5454.84  289.51  5.31
440.1  5584.70  294.73  5.28
441.6  5717.14  306.79  5.37
443.1  5852.25  311.58  5.32
444.7  5982.11  320.31  5.35
446.2  6104.50  328.10  5.37
447.7  6213.60  336.57  5.42
449.2  6315.84  345.02  5.46
450.7  6414.72  348.05  5.43
452.2  6543.45  356.06  5.44
453.7  6682.65  359.84  5.38
455.2  6842.54  370.01  5.41
456.7  7029.44  378.52  5.38
458.2  7231.16  394.00  5.45
459.7  7428.75  409.27  5.51
461.2  7633.63  421.95  5.53
462.7  7815.14  441.06  5.64
464.2  8000.76  453.35  5.67
465.7  8191.53  468.62  5.72
467.2  8352.58  479.97  5.75
468.7  8552.00  493.87  5.77
470.2  8711.17  504.26  5.79
471.7  8854.00  517.12  5.84
473.2  9050.37  529.47  5.85
474.6  9252.88  534.71  5.78
476.1  9378.88  535.37  5.71
477.6  9464.51  533.49  5.64
479.1  9567.20  535.85  5.60
480.6  9658.16  535.04  5.54
482.1  9797.74  543.09  5.54
483.6  9963.22  556.70  5.59
485.1  10140.49  571.91  5.64
486.6  10356.19  593.32  5.73
488.0  10562.50  616.20  5.83
489.5  10784.97  647.08  6.00
491.0  10998.86  686.50  6.24
492.5  11224.98  725.98  6.47
494.0  11462.99  772.37  6.74
495.4  11663.85  815.98  7.00
496.9  11870.36  865.06  7.29
498.4  12074.30  920.72  7.63
499.9  12278.41  979.66  7.98
501.4  12476.75  1041.42  8.35
502.8  12664.51  1102.50  8.71
504.3  12846.60  1169.04  9.10
505.8  13033.73  1241.97  9.53
507.2  13172.68  1312.96  9.97
508.7  13289.99  1375.62  10.35
510.2  13412.81  1442.24  10.75
511.6  13494.72  1511.02  11.20
513.1  13630.43  1584.26  11.62
514.6  13795.53  1661.29  12.04
516.0  13946.28  1735.92  12.45
517.5  14135.83  1824.34  12.91
519.0  14365.19  1910.42  13.30
520.5  14579.60  2001.89  13.73
521.9  14828.55  2097.76  14.15
523.4  15093.49  2195.36  14.55
524.8  15349.14  2296.77  14.96
526.3  15633.70  2398.18  15.34
527.8  15915.89  2498.70  15.70
529.2  16178.21  2592.69  16.03
530.7  16455.24  2691.83  16.36
532.1  16698.15  2781.92  16.66
533.6  16994.07  2878.33  16.94
535.0  17295.55  2973.89  17.19
536.5  17581.25  3067.49  17.45
538.0  17895.84  3163.57  17.68
539.4  18160.64  3257.19  17.94
540.9  18488.86  3362.46  18.19
542.3  18738.28  3455.43  18.44
543.8  18940.29  3534.12  18.66
545.2  19020.35  3586.45  18.86
546.6  19057.19  3620.10  19.00
548.1  19121.11  3654.33  19.11
549.5  19166.91  3687.57  19.24
551.0  19217.70  3720.62  19.36
552.4  19311.21  3763.10  19.49
553.9  19371.38  3794.09  19.59
555.3  19461.20  3835.26  19.71
556.8  19596.88  3887.80  19.84
558.2  19743.75  3935.70  19.93
559.6  19902.71  3993.32  20.06
561.1  20117.50  4067.27  20.22
562.5  20332.52  4143.85  20.38
564.0  20611.34  4238.08  20.56
565.4  20865.50  4326.89  20.74
566.8  21177.73  4429.49  20.92
568.3  21463.05  4530.27  21.11
569.7  21776.78  4631.45  21.27
571.1  22080.65  4724.98  21.40
572.6  22373.82  4815.72  21.52
574.0  22675.95  4909.08  21.65
575.4  22958.44  4997.70  21.77
576.9  23231.09  5084.31  21.89
578.3  23477.03  5164.69  22.00
579.7  23721.74  5246.19  22.12
581.1  23920.49  5319.01  22.24
582.6  24132.47  5393.34  22.35
584.0  24305.80  5467.90  22.50
585.4  24549.94  5560.01  22.65
586.8  24845.17  5665.02  22.80
588.3  25201.80  5786.98  22.96
589.7  25517.70  5894.93  23.10
591.1  25735.55  5976.12  23.22
592.5  25883.00  6031.83  23.30
594.0  25998.42  6071.55  23.35
595.4  26057.54  6107.49  23.44
596.8  26115.38  6145.00  23.53
598.2  26174.55  6183.99  23.63
599.6  26202.06  6214.97  23.72
601.0  26298.70  6269.03  23.84
602.4  26372.18  6314.21  23.94
603.9  26501.77  6370.70  24.04
605.3  26625.41  6430.17  24.15
606.7  26749.80  6483.60  24.24
608.1  26941.18  6553.65  24.33
609.5  27151.69  6626.01  24.40
610.9  27387.74  6707.34  24.49
612.3  27589.20  6783.42  24.59
613.7  27871.80  6871.60  24.65
615.1  28061.64  6918.05  24.65
616.5  28235.16  6964.63  24.67
617.9  28534.12  7059.76  24.74
619.3  28808.15  7164.29  24.87
620.7  29149.14  7292.48  25.02
622.1  29527.66  7288.40  24.68
623.5  29951.83  7199.08  24.04
624.9  30436.35  7139.79  23.46
626.3  30757.12  7079.58  23.02
627.7  30461.43  6973.13  22.89
629.1  30188.34  6935.95  22.98
630.5  30083.03  6967.41  23.16
631.9  30076.12  7052.03  23.45
633.3  30078.24  7130.09  23.71
634.7  30183.54  7207.37  23.88
636.1  30268.81  7200.59  23.79
637.5  30374.19  7190.37  23.67
638.9  30520.15  7193.48  23.57
640.2  30643.60  7205.55  23.51
641.6  30733.56  7199.71  23.43
643.0  30777.50  7166.90  23.29
644.4  30869.16  7147.32  23.15
645.8  30855.38  7100.19  23.01
647.2  31023.20  7098.45  22.88
648.5  31185.15  7112.39  22.81
649.9  31117.13  7104.42  22.83
651.3  31099.80  7132.52  22.93
652.7  31059.00  7126.74  22.95
654.1  30961.56  6895.54  22.27
655.5  30829.51  6607.39  21.43
656.8  30685.81  6344.24  20.67
658.2  30861.69  6190.50  20.06
659.6  31181.89  6089.08  19.53
660.9  31452.29  5985.51  19.03
662.3  31767.46  5883.00  18.52
663.7  32102.70  5761.28  17.95
665.0  32334.98  5645.80  17.46
666.4  32575.38  5537.23  17.00
667.8  32873.84  5462.74  16.62
669.1  33084.01  5383.26  16.27
670.5  33327.47  5329.57  15.99
671.9  33513.12  5287.41  15.78
673.2  33742.50  5289.19  15.68
674.6  33950.66  5310.39  15.64
676.0  34219.05  5375.24  15.71
677.3  34494.18  5472.98  15.87
678.7  34767.13  5614.25  16.15
680.0  35103.31  5833.96  16.62
681.4  35420.13  6128.87  17.30
682.8  35763.00  6513.17  18.21
684.1  36073.44  6993.17  19.39
685.5  36318.59  7555.06  20.80
686.8  36607.26  8198.36  22.40
688.2  36844.31  8886.54  24.12
689.5  36898.97  9575.86  25.95
690.9  36950.15  10284.24  27.83
692.2  37008.15  10976.90  29.66
693.6  37024.93  11673.80  31.53
694.9  37005.38  12297.98  33.23
696.2  37027.13  12883.34  34.79
697.6  37047.86  13417.11  36.22
698.9  37049.76  13947.29  37.64
700.3  37075.62  14435.09  38.93
701.6  37124.24  14895.10  40.12
703.0  37178.40  15304.19  41.16
704.3  37172.20  15623.60  42.03
705.6  37157.22  15945.78  42.91
707.0  37168.46  16228.43  43.66
708.3  37076.04  16431.96  44.32
709.6  36967.81  16613.53  44.94
711.0  36867.73  16742.73  45.41
712.3  36770.31  16863.38  45.86
713.6  36755.88  17001.04  46.25
714.9  36684.64  17120.49  46.67
716.3  36701.44  17248.23  47.00
717.6  36734.04  17384.96  47.33
718.9  36680.73  17451.61  47.58
720.2  36496.25  17430.71  47.76
721.6  36394.28  17432.10  47.90
722.9  36240.12  17453.81  48.16
724.2  36067.30  17432.09  48.33
725.5  35963.70  17445.27  48.51
726.8  35833.96  17418.74  48.61
728.1  35810.80  17392.62  48.57
729.5  35779.10  17385.21  48.59
730.8  35779.13  17376.92  48.57
732.1  35704.25  17375.08  48.66
733.4  35690.92  17387.80  48.72
734.7  35685.89  17359.49  48.65
736.0  35729.66  17381.49  48.65
737.3  35717.44  17386.48  48.68
738.6  35830.21  17452.49  48.71
739.9  36014.88  17607.87  48.89
741.2  36161.58  17678.75  48.89
742.5  36363.94  17844.82  49.07
743.8  36737.66  18106.94  49.29
745.1  37309.08  18458.64  49.47
746.4  37926.98  18817.83  49.62
747.7  38536.99  19149.48  49.69
749.0  39118.92  19469.50  49.77
750.3  39493.02  19607.00  49.65
751.6  39440.80  19551.95  49.57
752.9  39084.79  19411.49  49.67
754.2  38731.25  19255.28  49.72
755.4  38386.91  19080.14  49.70
756.7  38244.09  19057.52  49.83
758.0  38261.36  19130.58  50.00
759.3  38489.95  19314.53  50.18
760.6  38786.44  19571.96  50.46
761.9  39062.28  19795.71  50.68
763.1  39197.21  19910.77  50.80
764.4  39371.54  20058.75  50.95
765.7  39490.75  20166.90  51.07
767.0  39577.16  20252.25  51.17
768.2  39644.64  20328.45  51.28
769.5  39697.68  20408.40  51.41
770.8  39836.32  20517.03  51.50
772.0  39856.44  20565.25  51.60
773.3  39898.95  20647.41  51.75
774.6  39978.84  20726.12  51.84
775.8  40054.79  20773.03  51.86
777.1  40085.96  20798.66  51.89
778.4  40059.57  20785.49  51.89
779.6  39999.54  20815.90  52.04
780.9  39948.00  20827.20  52.14
782.1  39837.20  20789.84  52.19
783.4  39802.88  20813.87  52.29
784.6  39851.08  20861.86  52.35
785.9  40095.40  21086.28  52.59
787.1  40531.58  21404.69  52.81
788.4  40834.19  21512.15  52.68
789.6  40796.10  21331.29  52.29
790.9  40479.11  21044.31  51.99
792.1  40128.24  20855.82  51.97
793.4  39739.41  20665.26  52.00
794.6  39507.48  20516.13  51.93
795.8  39314.07  20420.57  51.94
797.1  39097.95  20324.59  51.98
798.3  38940.83  20266.90  52.05
799.5  38821.14  20216.18  52.08
800.8  38733.05  20152.87  52.03
802.0  38591.76  20100.74  52.09
803.2  38469.72  20028.42  52.06
804.5  38377.94  19974.38  52.05
805.7  38264.87  19930.96  52.09
806.9  38181.95  19878.02  52.06
808.1  38074.65  19851.06  52.14
809.4  38033.33  19847.63  52.18
810.6  37951.55  19823.44  52.23
811.8  37942.61  19841.60  52.29
813.0  37965.80  19876.14  52.35
814.2  37975.49  19911.61  52.43
815.4  38039.93  19939.79  52.42
816.6  38032.65  19940.46  52.43
817.9  38050.16  19934.69  52.39
819.1  37997.24  19870.82  52.30
820.3  37865.18  19784.73  52.25
821.5  37787.61  19737.14  52.23
822.7  37714.41  19703.76  52.24
823.9  37704.87  19708.28  52.27
825.1  37688.07  19684.89  52.23
826.3  37716.38  19687.20  52.20
827.5  37726.06  19688.25  52.19
828.7  37779.60  19680.96  52.09
829.9  37796.29  19688.58  52.09
831.0  37849.02  19732.15  52.13
832.2  37913.75  19785.53  52.19
833.4  37950.44  19823.99  52.24
834.6  37978.13  19865.00  52.31
835.8  38031.53  19916.82  52.37
837.0  38073.26  20006.97  52.55
838.1  38178.69  20110.17  52.67
839.3  38239.24  20166.35  52.74
840.5  38296.24  20223.52  52.81
841.7  38381.58  20354.96  53.03
842.9  38485.06  20502.37  53.27
844.0  38543.94  20584.26  53.40
845.2  38626.85  20683.01  53.55
846.4  38724.98  20748.59  53.58
847.5  38888.12  20878.07  53.69
848.7  39002.30  20966.01  53.76
849.9  39141.74  21022.22  53.71
851.0  39173.78  21011.46  53.64
852.2  39245.07  21012.38  53.54
853.3  39202.67  20979.40  53.52
854.5  39188.19  20967.43  53.50
855.6  39170.88  20981.18  53.56
856.8  39193.80  21026.53  53.65
857.9  39192.81  21044.29  53.69
859.1  39326.60  21102.32  53.66
860.2  39300.24  21117.55  53.73
861.4  39344.78  21146.89  53.75
862.5  39384.29  21176.29  53.77
863.7  39467.66  21203.24  53.72
864.8  39454.45  21211.73  53.76
865.9  39398.65  21215.04  53.85
867.1  39448.45  21203.51  53.75
868.2  39441.53  21227.37  53.82
869.3  39465.67  21240.25  53.82
870.5  39438.89  21189.52  53.73
871.6  39473.54  21219.96  53.76
872.7  39541.37  21276.36  53.81
873.9  39548.50  21279.97  53.81
875.0  39546.05  21251.07  53.74
876.1  39583.15  21243.50  53.67
877.2  39616.79  21245.92  53.63
878.3  39601.98  21206.01  53.55
879.4  39662.11  21214.82  53.49
880.5  39702.60  21219.98  53.45
881.7  39698.10  21171.19  53.33
882.8  39775.46  21143.51  53.16
883.9  39785.32  21102.07  53.04
885.0  39766.55  21010.08  52.83
886.1  39735.85  20939.54  52.70
887.2  39664.66  20814.44  52.48
888.3  39567.00  20717.52  52.36
889.4  39535.02  20635.47  52.20
890.5  39459.91  20601.04  52.21
891.6  39428.33  20542.43  52.10
892.7  39429.01  20483.54  51.95
893.8  39492.50  20538.16  52.01
894.9  39505.51  20563.20  52.05
896.0  39527.49  20486.63  51.83
897.0  39487.40  20459.22  51.81
898.1  39490.45  20463.46  51.82
899.2  39536.22  20432.18  51.68
900.3  39503.73  20390.07  51.62
901.4  39454.09  20315.63  51.49
902.4  39461.49  20312.52  51.47
903.5  39418.10  20257.32  51.39
904.6  39431.18  20275.07  51.42
905.7  39454.64  20223.70  51.26
906.7  39397.52  20211.66  51.30
907.8  39514.80  20205.49  51.13
908.9  39443.33  20143.73  51.07
909.9  39411.21  20096.43  50.99
911.0  39357.50  20007.30  50.83
912.1  39280.99  19953.25  50.80
913.1  39233.48  19870.66  50.65
914.2  39173.92  19798.08  50.54
915.2  39170.79  19761.55  50.45
916.3  39094.50  19719.44  50.44
917.3  39076.47  19654.08  50.30
918.4  39031.30  19552.28  50.09
919.4  39022.48  19456.59  49.86
920.5  39026.74  19421.78  49.77
921.5  39018.63  19378.94  49.67
922.6  38959.72  19263.24  49.44
923.6  39026.05  19211.84  49.23
924.7  39022.50  19136.43  49.04
925.7  39030.84  19071.61  48.86
926.7  39009.32  18973.71  48.64
927.8  39032.57  18860.94  48.32
928.8  39142.62  18860.37  48.18
929.9  39330.10  18790.42  47.78
930.9  39447.46  18787.12  47.63
931.9  39602.61  18819.50  47.52
932.9  39864.58  18880.32  47.36
934.0  39909.81  18780.81  47.06
935.0  39942.68  18705.90  46.83
936.0  39929.50  18620.34  46.63
937.0  39883.94  18524.48  46.45
938.1  39848.52  18412.82  46.21
939.1  39753.89  18353.13  46.17
940.1  39867.76  18255.32  45.79
941.1  39995.43  18238.87  45.60
942.1  40229.45  18239.68  45.34
943.1  40393.76  18213.76  45.09
944.1  40552.56  18192.50  44.86
945.2  40570.32  18092.59  44.60
946.2  40685.67  17994.57  44.23
947.2  40740.25  17906.45  43.95
948.2  40874.09  17838.11  43.64
949.2  40954.06  17755.51  43.35
950.2  41026.00  17639.31  43.00
951.2  41012.16  17514.90  42.71
952.2  41170.94  17405.88  42.28
953.2  41257.13  17352.64  42.06
954.2  41395.95  17286.00  41.76
955.2  41401.94  17183.47  41.50
956.2  41391.82  17074.39  41.25
957.2  41524.97  17010.18  40.96
958.2  41486.28  16942.41  40.84
959.2  41625.00  16920.84  40.65
960.1  41647.94  16872.49  40.51
961.1  41725.78  16896.88  40.50
962.1  41752.50  16862.50  40.39
963.1  41720.60  16846.34  40.38
964.1  41837.60  16837.14  40.24
965.1  41932.95  16875.49  40.24
966.1  41961.44  16907.86  40.29
967.0  42058.17  16898.80  40.18
968.0  42094.69  16882.22  40.11
969.0  42115.20  16925.97  40.19
970.0  42092.26  16934.02  40.23
971.0  42266.18  16967.23  40.14
971.9  42275.33  16947.92  40.09
972.9  42388.85  16916.20  39.91
973.9  42492.13  16832.53  39.61
974.9  42580.28  16784.33  39.42
975.8  42630.52  16734.32  39.25
976.8  42806.43  16658.61  38.92
977.8  42848.34  16604.13  38.75
978.8  42868.95  16602.78  38.73
979.7  43050.58  16687.29  38.76
980.7  43264.32  16632.37  38.44
981.7  43347.07  16567.83  38.22
982.6  43545.07  16739.49  38.44
983.6  44003.55  16822.47  38.23
984.6  44377.46  17131.11  38.60
985.5  44900.28  17300.02  38.53
986.5  45688.01  17432.06  38.15
987.5  46285.78  17585.54  37.99
988.4  47161.40  17797.56  37.74
989.4  47812.76  18076.47  37.81
990.4  48753.98  18547.92  38.04
991.3  50274.64  18882.81  37.56
992.3  50864.45  19224.15  37.79
993.2  51610.85  19387.73  37.57
994.2  53891.66  19566.30  36.31
995.2  55394.96  19546.77  35.29
996.1  55625.12  19438.23  34.95
997.1  56348.70  19542.90  34.68
998.0  54473.40  18820.16  34.55
999.0  55283.87  18933.82  34.25
1000.0  55127.21  19000.76  34.47
1000.9  55875.58  19044.91  34.08
1001.9  56355.47  19460.88  34.53
1002.8  54776.67  18231.01  33.28
1003.8  57170.04  18445.70  32.26
1004.8  54763.20  19106.27  34.89
961.5  49984.08  17338.13  34.69
965.5  48959.90  17371.95  35.48
969.5  47367.08  17034.97  35.96
973.4  45664.01  16363.31  35.83
977.4  44063.24  15770.62  35.79
981.4  43484.76  15534.37  35.72
985.3  43466.28  15467.79  35.59
989.3  43739.41  15627.08  35.73
993.3  44088.36  15857.99  35.97
997.2  44246.85  16015.65  36.20
1001.2  44240.69  16168.53  36.55
1005.2  44147.66  16327.02  36.98
1009.1  44170.72  16549.05  37.47
1013.1  44298.35  16835.21  38.00
1017.1  44409.64  17119.47  38.55
1021.0  44418.65  17348.06  39.06
1025.0  44431.92  17543.64  39.48
1029.0  44310.95  17685.39  39.91
1032.9  44196.36  17837.73  40.36
1036.9  44214.81  18038.07  40.80
1040.9  44317.48  18297.38  41.29
1044.8  44471.57  18599.32  41.82
1048.8  44586.22  18873.54  42.33
1052.7  44660.98  19103.91  42.78
1056.7  44664.90  19266.75  43.14
1060.7  44652.74  19388.09  43.42
1064.6  44643.90  19484.81  43.64
1068.6  44545.19  19504.07  43.78
1072.5  44448.63  19485.27  43.84
1076.5  44390.31  19453.84  43.82
1080.4  44363.13  19404.99  43.74
1084.4  44428.99  19362.55  43.58
1088.3  44526.89  19291.90  43.33
1092.3  44515.11  19150.38  43.02
1096.2  44485.25  19010.22  42.73
1100.2  44489.30  18881.27  42.44
1104.1  44387.15  18687.75  42.10
1108.1  44344.78  18506.97  41.73
1112.0  44255.25  18272.15  41.29
1116.0  44078.91  17960.13  40.75
1119.9  43920.46  17620.74  40.12
1123.9  43980.05  17299.13  39.33
1127.8  43933.44  16824.32  38.30
1131.8  43891.20  16217.90  36.95
1135.7  43904.71  15499.36  35.30
1139.6  43873.24  14701.50  33.51
1143.6  43814.30  13947.88  31.83
1147.5  43764.96  13319.34  30.43
1151.4  43600.54  12816.56  29.40
1155.4  43567.43  12514.44  28.72
1159.3  43548.37  12332.10  28.32
1163.2  43379.84  12175.67  28.07
1167.2  43333.14  12096.18  27.91
1171.1  43320.14  12040.77  27.79
1175.0  43247.45  11979.36  27.70
1179.0  43203.54  11925.20  27.60
1182.9  43281.26  11888.71  27.47
1186.8  43262.79  11833.90  27.35
1190.7  43059.97  11730.97  27.24
1194.7  42822.73  11634.04  27.17
1198.6  42602.18  11573.10  27.17
1202.5  42456.57  11544.42  27.19
1206.4  42335.53  11543.66  27.27
1210.3  42230.32  11566.68  27.39
1214.2  42126.94  11589.29  27.51
1218.2  41984.08  11606.90  27.65
1222.1  41854.50  11656.82  27.85
1226.0  41760.57  11721.14  28.07
1229.9  41673.90  11772.36  28.25
1233.8  41576.55  11811.18  28.41
1237.7  41528.30  11855.38  28.55
1241.6  41457.25  11891.10  28.68
1245.5  41309.15  11903.75  28.82
1249.4  41175.26  11909.12  28.92
1253.3  41058.30  11916.57  29.02
1257.2  40978.33  11938.77  29.13
1261.1  40873.57  11940.05  29.21
1265.0  40757.89  11920.19  29.25
1268.9  40587.74  11857.58  29.21
1272.8  40626.75  11839.85  29.14
1276.7  40780.33  11849.80  29.06
1280.6  40842.56  11809.59  28.91
1284.5  40748.73  11700.08  28.71
1288.4  40697.88  11586.10  28.47
1292.3  40562.50  11431.75  28.18
1296.2  40411.46  11245.01  27.83
1300.1  40239.63  11028.90  27.41
1303.9  40009.73  10777.27  26.94
1307.8  39785.54  10506.00  26.41
1311.7  39554.21  10212.86  25.82
1315.6  39326.35  9906.49  25.19
1319.5  39086.11  9575.99  24.50
1323.3  38870.69  9235.49  23.76
1327.2  38681.53  8905.37  23.02
1331.1  38474.56  8557.88  22.24
1335.0  38203.08  8204.68  21.48
1338.8  38009.09  7894.12  20.77
1342.7  37876.27  7608.32  20.09
1346.5  37598.34  7291.73  19.39
1350.4  37400.07  6987.73  18.68
1354.3  37094.65  6672.83  17.99
1358.1  36731.71  6375.43  17.36
1362.0  36487.36  6132.19  16.81
1365.8  36370.47  5923.38  16.29
1369.7  36432.94  5726.77  15.72
1373.5  36366.82  5444.37  14.97
1377.4  36166.21  5032.18  13.91
1381.2  35990.96  4547.02  12.63
1385.1  35936.27  4088.84  11.38
1389.0  35813.45  3656.97  10.21
1392.8  35598.92  3234.12  9.08
1396.6  35460.61  2855.77  8.05
1400.5  35253.63  2544.25  7.22
1404.3  35072.57  2314.94  6.60
1408.2  35016.72  2144.69  6.12
1412.0  34945.02  2012.53  5.76
1415.8  34962.39  1922.33  5.50
1419.6  34891.95  1850.21  5.30
1423.5  34842.23  1795.30  5.15
1427.3  34796.45  1757.40  5.05
1431.1  34758.75  1732.13  4.98
1434.9  34669.05  1707.56  4.93
1438.8  34606.94  1694.58  4.90
1442.6  34573.84  1687.15  4.88
1446.4  34441.31  1675.74  4.87
1450.2  34332.12  1668.35  4.86
1454.0  34220.52  1664.40  4.86
1457.8  34188.19  1669.90  4.88
1461.6  34155.00  1679.67  4.92
1465.4  34045.70  1692.57  4.97
1469.2  33870.20  1708.53  5.04
1473.0  33726.92  1731.28  5.13
1476.8  33664.28  1766.97  5.25
1480.7  33601.58  1817.12  5.41
1484.4  33488.64  1871.12  5.59
1488.2  33386.04  1934.96  5.80
1492.0  33257.25  1997.33  6.01
1495.8  33142.20  2061.91  6.22
1499.6  33034.11  2119.47  6.42
1503.4  32933.47  2149.19  6.53
1507.2  32852.74  2167.94  6.60
1510.9  32722.34  2198.52  6.72
1514.7  32573.11  2237.37  6.87
1518.5  32453.90  2282.96  7.03
1522.3  32317.90  2335.83  7.23
1526.0  32200.64  2387.35  7.41
1529.8  32127.61  2444.17  7.61
1533.6  32011.66  2506.31  7.83
1537.3  31894.88  2565.07  8.04
1541.1  31782.08  2622.48  8.25
1544.8  31651.20  2685.60  8.48
1548.6  31528.46  2745.37  8.71
1552.4  31450.00  2803.72  8.91
1556.1  31366.15  2848.62  9.08
1559.9  31270.43  2888.76  9.24
1563.6  31150.17  2939.27  9.44
1567.3  31046.10  2995.47  9.65
1571.1  30855.35  3045.50  9.87
1574.8  30723.08  3103.10  10.10
1578.6  30633.26  3154.55  10.30
1582.3  30519.48  3191.71  10.46
1586.0  30400.45  3225.82  10.61
1589.8  30269.89  3251.31  10.74
1593.5  30123.48  3278.73  10.88
1597.2  29998.09  3314.18  11.05
1600.9  29883.71  3336.96  11.17
1604.7  29753.95  3361.00  11.30
1608.4  29639.51  3394.06  11.45
1612.1  29489.62  3421.07  11.60
1615.8  29365.23  3446.19  11.74
1619.5  29298.37  3474.42  11.86
1623.2  29161.12  3497.89  12.00
1626.9  29003.45  3515.13  12.12
1630.6  28846.40  3529.97  12.24
1634.3  28721.00  3543.18  12.34
1638.0  28599.28  3544.97  12.40
1641.7  28456.49  3541.35  12.44
1645.4  28299.47  3532.75  12.48
1649.1  28138.66  3519.91  12.51
1652.8  28008.70  3504.64  12.51
1656.4  27859.80  3484.05  12.51
1660.1  27720.43  3468.99  12.51
1663.8  27551.22  3451.75  12.53
1667.5  27406.07  3431.71  12.52
1671.1  27282.14  3412.90  12.51
1674.8  27100.13  3385.96  12.49
1678.5  27060.12  3370.73  12.46
1682.1  27085.37  3355.44  12.39
1685.8  27087.74  3336.56  12.32
1689.5  26985.46  3307.41  12.26
1693.1  26859.21  3274.55  12.19
1696.8  26718.75  3239.50  12.12
1700.4  26575.97  3199.03  12.04
1704.0  26457.91  3153.45  11.92
1707.7  26210.69  3092.46  11.80
1711.3  25940.59  3023.06  11.65
1715.0  25755.85  2964.84  11.51
1718.6  25603.66  2914.34  11.38
1722.2  25471.82  2863.91  11.24
1725.9  25346.15  2817.58  11.12
1729.5  25225.17  2777.42  11.01
1733.1  25122.33  2747.65  10.94
1736.7  25028.77  2719.67  10.87
1740.3  24869.68  2679.21  10.77
1744.0  24796.20  2641.99  10.65
1747.5  24670.34  2591.05  10.50
1751.2  24460.97  2529.95  10.34
1754.8  24300.77  2477.22  10.19
1758.4  24168.99  2429.29  10.05
1762.0  24004.67  2388.21  9.95
1765.5  23878.06  2353.17  9.85
1769.1  23824.80  2331.20  9.78
1772.7  23745.17  2309.63  9.73
1776.3  23631.64  2280.10  9.65
1779.9  23517.13  2255.02  9.59
1783.5  23453.36  2235.31  9.53
1787.0  23338.16  2211.62  9.48
1790.6  23194.11  2195.45  9.47
1794.2  23099.94  2186.00  9.46
1797.8  23019.59  2173.40  9.44
1801.3  22943.45  2163.33  9.43
1804.9  22821.75  2148.13  9.41
1808.4  22758.56  2142.32  9.41
1812.0  22651.25  2127.66  9.39
1815.5  22537.46  2111.87  9.37
1819.1  22377.91  2091.71  9.35
1822.6  22230.86  2071.19  9.32
1826.2  22108.08  2057.16  9.31
1829.7  21962.63  2033.35  9.26
1833.2  21769.52  2004.49  9.21
1836.8  21568.82  1973.64  9.15
1840.3  21408.35  1956.77  9.14
1843.8  21283.15  1952.81  9.18
1847.3  21175.36  1958.71  9.25
1850.8  21026.88  1959.55  9.32
1854.3  20829.70  1937.26  9.30
1857.8  20716.80  1887.60  9.11
1861.3  20743.52  1802.41  8.69
1864.8  20771.48  1662.34  8.00
1868.3  20668.83  1495.93  7.24
1871.8  20505.60  1328.64  6.48
1875.3  20412.67  1191.19  5.84
1878.8  20386.82  1098.23  5.39
1882.3  20318.80  1013.07  4.99
1885.8  20165.84  942.30  4.67
1889.3  19976.70  884.15  4.43
1892.7  19815.25  844.08  4.26
1896.2  19650.94  826.43  4.21
1899.7  19441.16  833.71  4.29
1903.1  19313.45  879.65  4.55
1906.6  19304.54  941.42  4.88
1910.0  19451.18  1042.40  5.36
1913.5  19794.95  1197.16  6.05
1917.0  20308.75  1452.39  7.15
1920.4  20662.58  1741.14  8.43
1923.8  20806.27  1788.04  8.59
1871.2  18887.00  816.53  4.32
1873.9  18953.16  769.58  4.06
1876.7  18991.47  772.18  4.07
1879.5  19143.67  706.23  3.69
1882.3  18900.39  640.54  3.39
1885.1  18757.12  591.91  3.16
1887.8  18909.61  552.53  2.92
1890.6  18719.80  543.17  2.90
1893.4  18700.00  486.45  2.60
1896.2  18690.78  451.57  2.42
1898.9  18634.09  466.76  2.50
1901.7  18493.24  460.47  2.49
1904.5  18663.12  440.83  2.36
1907.2  18605.75  448.08  2.41
1910.0  18464.96  452.51  2.45
1912.7  18451.36  436.36  2.36
1915.5  18338.72  440.31  2.40
1918.2  18231.61  438.94  2.41
1921.0  18078.76  430.94  2.38
1923.7  18082.37  426.88  2.36
1926.5  18028.91  421.20  2.34
1929.2  17989.40  427.55  2.38
1932.0  17961.44  425.55  2.37
1934.7  17922.05  415.85  2.32
1937.4  17800.47  422.86  2.38
1940.2  17730.06  439.49  2.48
1942.9  17801.07  447.62  2.51
1945.6  17808.94  432.87  2.43
1948.3  17731.12  439.22  2.48
1951.1  17698.80  436.45  2.47
1953.8  17700.00  437.00  2.47
1956.5  17568.67  449.25  2.56
1959.2  17632.03  436.54  2.48
1961.9  17647.56  443.03  2.51
1964.6  17543.58  455.18  2.59
1967.3  17598.27  452.91  2.57
1970.0  17419.60  454.85  2.61
1972.8  17335.24  456.94  2.64
1975.5  17419.52  457.54  2.63
1978.2  17336.04  459.41  2.65
1980.9  17221.82  461.54  2.68
1983.5  17185.34  465.33  2.71
1986.2  17183.55  463.66  2.70
1988.9  17157.36  473.36  2.76
1991.6  17017.92  478.91  2.81
1994.3  16893.86  471.76  2.79
1997.0  16913.63  464.22  2.74
1999.7  16876.79  471.91  2.80
2002.3  16857.27  483.28  2.87
2005.0  16785.35  497.66  2.96
2007.7  16706.93  504.53  3.02
2010.4  16656.07  492.97  2.96
2013.0  16600.58  490.29  2.95
2015.7  16495.88  499.19  3.03
2018.4  16401.61  506.82  3.09
2021.0  16371.00  510.94  3.12
2023.7  16264.64  505.03  3.11
2026.4  16195.83  497.61  3.07
2029.0  16138.97  514.54  3.19
2031.7  16029.65  518.27  3.23
2034.3  16012.75  515.45  3.22
2037.0  15932.90  518.90  3.26
2039.6  15864.39  523.28  3.30
2042.3  15822.15  526.09  3.33
2044.9  15747.27  526.41  3.34
2047.5  15719.22  523.60  3.33
2050.2  15638.00  526.40  3.37
2052.8  15596.00  520.80  3.34
2055.4  15487.61  523.91  3.38
2058.1  15363.60  536.67  3.49
2060.7  15311.01  538.51  3.52
2063.3  15243.07  537.83  3.53
2065.9  15200.63  535.07  3.52
2068.6  15142.00  544.38  3.60
2071.2  15102.27  544.05  3.60
2073.8  15013.06  544.74  3.63
2076.4  14939.89  556.66  3.73
2079.0  14937.96  562.94  3.77
2081.6  14955.68  557.04  3.72
2084.2  14929.44  567.16  3.80
2086.8  14795.01  568.50  3.84
2089.4  14708.12  571.11  3.88
2092.1  14645.50  581.78  3.97
2094.7  14574.18  581.01  3.99
2097.2  14543.50  586.50  4.03
2099.8  14569.24  583.57  4.01
2102.4  14455.51  585.73  4.05
2105.0  14315.55  591.85  4.13
2107.6  14281.54  590.56  4.14
2110.2  14245.28  583.49  4.10
2112.8  14225.04  593.67  4.17
2115.3  14222.61  601.39  4.23
2117.9  14223.97  596.78  4.20
2120.5  14225.20  597.58  4.20
2123.1  14136.53  612.30  4.33
2125.6  14079.43  621.78  4.42
2128.2  14012.88  608.75  4.34
2130.8  13940.55  609.38  4.37
2133.3  13889.33  614.04  4.42
2135.9  13802.30  606.97  4.40
2138.4  13704.95  616.84  4.50
2141.0  13601.55  629.79  4.63
2143.6  13585.34  619.56  4.56
2146.1  13439.94  616.07  4.58
2148.7  13282.54  619.64  4.67
2151.2  13302.67  615.02  4.62
2153.8  13324.47  626.93  4.71
2156.3  13227.98  630.04  4.76
2158.8  13160.05  622.17  4.73
2161.4  13128.93  628.98  4.79
2163.9  13034.58  625.05  4.80
2166.4  12973.85  611.04  4.71
2169.0  12959.07  616.96  4.76
2171.5  12876.28  622.87  4.84
2174.0  12786.55  613.84  4.80
2176.5  12767.30  616.94  4.83
2179.1  12718.27  622.41  4.89
2181.6  12644.21  627.60  4.96
2184.1  12612.60  630.37  5.00
2186.6  12631.79  616.16  4.88
2189.1  12551.10  615.25  4.90
2191.6  12501.53  627.20  5.02
2194.1  12512.72  620.05  4.96
2196.6  12513.32  614.80  4.91
2199.2  12564.98  629.06  5.01
2201.7  12503.60  635.15  5.08
2204.1  12450.01  626.72  5.03
2206.6  12458.20  630.37  5.06
2209.1  12429.94  628.31  5.05
2211.6  12413.54  620.49  5.00
2214.1  12385.83  631.08  5.10
2216.6  12340.79  626.72  5.08
2219.1  12355.98  617.86  5.00
2221.6  12303.15  628.10  5.11
2224.0  12230.10  623.57  5.10
2226.5  12198.83  599.92  4.92
2229.0  12234.63  602.72  4.93
2231.5  12152.59  603.86  4.97
2233.9  12137.64  583.66  4.81
2236.4  12131.98  577.71  4.76
2238.9  12024.13  569.63  4.74
2241.3  12068.10  559.68  4.64
2243.8  12017.57  566.16  4.71
2246.2  11870.35  556.95  4.69
2248.7  11882.39  547.65  4.61
2251.2  11860.53  561.13  4.73
2253.6  11784.96  537.60  4.56
2256.1  11773.44  520.96  4.42
2258.5  11793.92  523.75  4.44
2260.9  11696.75  513.89  4.39
2263.4  11668.53  498.98  4.28
2265.8  11678.48  492.37  4.22
2268.3  11583.48  491.30  4.24
2270.7  11653.18  465.72  4.00
2273.1  11608.55  464.04  4.00
2275.6  11523.84  480.00  4.17
2278.0  11553.06  466.33  4.04
2280.4  11529.61  454.10  3.94
2282.8  11402.06  458.15  4.02
2285.3  11435.59  457.53  4.00
2287.7  11531.47  442.57  3.84
2290.1  11440.95  428.28  3.74
2292.5  11408.96  412.71  3.62
2294.9  11404.51  413.61  3.63
2297.3  11303.39  392.87  3.48
2299.7  11233.01  386.94  3.44
2302.1  11231.11  408.55  3.64
2304.5  11113.20  385.47  3.47
2306.9  10995.60  375.01  3.41
2309.3  10932.15  389.22  3.56
2311.7  10856.55  375.49  3.46
2314.1  10708.33  361.02  3.37
2316.5  10641.94  390.06  3.67
2318.9  10674.03  398.11  3.73
2321.3  10672.73  372.40  3.49
2323.7  10642.23  384.69  3.61
2326.1  10606.96  384.19  3.62
2328.4  10691.58  366.15  3.42
2330.8  10736.25  366.74  3.42
2333.2  10617.06  376.14  3.54
2335.6  10582.60  366.73  3.47
2337.9  10642.00  357.52  3.36
2340.3  10592.40  363.86  3.44
2342.7  10507.23  356.87  3.40
2345.0  10502.01  355.30  3.38
2347.4  10493.25  340.00  3.24
2349.7  10277.63  344.58  3.35
2352.1  10236.25  348.78  3.41
2354.4  10290.21  339.57  3.30
2356.8  10243.45  329.51  3.22
2359.2  10187.67  336.56  3.30
2361.5  10122.93  344.70  3.41
2363.8  10144.75  311.81  3.07
2366.2  10159.49  313.35  3.08
2368.5  10097.05  311.50  3.09
2370.9  10118.68  305.68  3.02
2373.2  10072.53  310.27  3.08
2375.5  9932.38  301.67  3.04
2377.9  9918.93  290.21  2.93
2380.2  9923.89  297.81  3.00
2382.5  9856.28  310.93  3.15
2384.8  9822.88  292.32  2.98
2387.2  9807.99  285.99  2.92
2389.5  9759.69  288.02  2.95
2391.8  9772.85  288.37  2.95
2394.1  9716.63  310.29  3.19
2396.4  9652.48  298.37  3.09
2398.7  9714.10  277.69  2.86
2401.0  9598.25  270.33  2.82
2403.3  9511.80  270.58  2.84
2405.6  9521.83  273.24  2.87
2407.9  9458.88  263.86  2.79
2410.2  9400.00  274.06  2.92
2412.5  9350.27  264.25  2.83
2414.8  9330.30  253.33  2.72
2417.1  9280.68  266.69  2.87
2419.4  9294.64  234.45  2.52
2421.7  9214.94  250.57  2.72
2424.0  9156.02  269.45  2.94
2426.2  9223.40  244.32  2.65
2428.5  9129.27  257.80  2.82
2430.8  9112.40  245.25  2.69
2433.1  9071.93  226.80  2.50
2435.4  8991.17  242.45  2.70
2437.6  8963.19  236.86  2.64
2439.9  8866.09  245.19  2.77
2442.2  8873.80  240.81  2.71
2444.4  8827.50  229.74  2.60
2446.7  8812.56  225.81  2.56
2448.9  8870.66  221.08  2.49
2451.2  8802.92  214.56  2.44
2453.4  8732.64  218.97  2.51
2455.7  8702.87  253.40  2.91
2457.9  8608.05  227.92  2.65
2460.2  8594.01  207.56  2.42
2462.4  8611.20  214.24  2.49
2464.7  8503.63  218.69  2.57
2466.9  8416.62  216.14  2.57
2469.2  8471.54  216.06  2.55
2471.4  8370.38  238.53  2.85
2473.6  8261.63  220.94  2.67
2475.9  8256.69  189.65  2.30
2478.1  8211.66  191.28  2.33
2480.3  8173.00  190.29  2.33
2482.5  8177.69  164.41  2.01
2484.8  8119.06  201.46  2.48
2487.0  8110.30  212.32  2.62
2489.2  8058.48  196.00  2.43
2491.4  7946.29  227.99  2.87
2493.6  7987.26  211.64  2.65
2495.8  7981.68  176.84  2.22
2498.0  7985.07  186.45  2.34
2500.2  7961.63  196.59  2.47
2502.4  8125.20  198.32  2.44
2504.6  8272.59  194.06  2.35
2506.8  8348.61  181.85  2.18
