/*** Spectra Vista SIG Data ***/
name= AT.sig
comm= Averaged Ref/Tar of files: AT1,AT2,AT3
data=
346.4  490.49  161.27  32.88
347.9  527.10  160.01  30.36
349.5  577.20  160.26  27.77
351.1  611.52  163.28  26.70
352.6  670.45  169.62  25.30
354.2  713.41  170.94  23.96
355.7  774.53  181.96  23.49
357.3  818.33  195.57  23.90
358.8  842.30  190.01  22.56
360.4  911.03  192.29  21.11
361.9  964.65  199.90  20.72
363.5  990.28  205.67  20.77
365.1  1050.65  201.00  19.13
366.6  1104.80  203.13  18.39
368.2  1165.05  203.91  17.50
369.7  1227.64  203.30  16.56
371.3  1313.71  207.21  15.77
372.8  1384.44  214.91  15.52
374.4  1441.80  216.38  15.01
375.9  1515.98  224.64  14.82
377.4  1557.95  226.81  14.56
379.0  1607.16  227.12  14.13
380.5  1649.54  224.86  13.63
382.1  1716.86  218.47  12.73
383.6  1783.22  223.12  12.51
385.2  1859.00  228.89  12.31
386.7  1941.28  227.61  11.72
388.3  2032.69  232.17  11.42
389.8  2119.14  243.21  11.48
391.3  2222.43  252.51  11.36
392.9  2290.23  261.55  11.42
394.4  2338.39  272.42  11.65
395.9  2427.22  286.05  11.79
397.5  2577.54  296.19  11.49
399.0  2700.66  303.65  11.24
400.6  2764.91  298.94  10.81
402.1  2809.62  295.41  10.51
403.6  2860.22  288.98  10.10
405.1  2936.23  293.40  9.99
406.7  3044.16  295.16  9.70
408.2  3154.14  310.74  9.85
409.7  3256.96  318.90  9.79
411.3  3364.47  327.35  9.73
412.8  3467.31  336.70  9.71
414.3  3583.14  349.67  9.76
415.8  3707.50  362.67  9.78
417.4  3825.36  373.01  9.75
418.9  3916.44  383.63  9.80
420.4  3990.49  386.42  9.68
421.9  4077.70  389.70  9.56
423.5  4137.62  393.60  9.51
425.0  4218.56  395.56  9.38
426.5  4304.30  398.04  9.25
428.0  4419.03  402.57  9.11
429.5  4544.48  412.64  9.08
431.1  4705.92  421.25  8.95
432.6  4881.23  434.49  8.90
434.1  5043.50  446.79  8.86
435.6  5187.74  456.86  8.81
437.1  5331.30  473.85  8.89
438.6  5474.49  482.54  8.81
440.1  5610.48  491.73  8.76
441.6  5755.19  502.36  8.73
443.1  5898.83  516.51  8.76
444.7  6035.54  523.61  8.68
446.2  6155.02  529.41  8.60
447.7  6280.48  543.33  8.65
449.2  6419.52  549.79  8.56
450.7  6524.96  551.96  8.46
452.2  6637.77  561.79  8.46
453.7  6773.91  567.88  8.38
455.2  6941.27  575.18  8.29
456.7  7138.56  594.06  8.32
458.2  7351.73  611.63  8.32
459.7  7579.25  629.71  8.31
461.2  7790.71  651.34  8.36
462.7  7967.29  670.18  8.41
464.2  8158.14  689.06  8.45
465.7  8354.88  709.70  8.49
467.2  8521.98  728.55  8.55
468.7  8686.00  743.53  8.56
470.2  8801.57  757.39  8.61
471.7  8996.50  776.55  8.63
473.2  9331.18  795.87  8.53
474.6  9564.43  806.99  8.44
476.1  9620.56  808.29  8.40
477.6  9638.73  805.38  8.36
479.1  9692.33  802.78  8.28
480.6  9790.29  801.29  8.18
482.1  9922.88  811.22  8.18
483.6  10086.88  823.08  8.16
485.1  10289.79  840.76  8.17
486.6  10525.88  863.51  8.20
488.0  10770.50  886.76  8.23
489.5  11028.84  920.87  8.35
491.0  11284.28  955.89  8.47
492.5  11552.22  989.44  8.56
494.0  11817.78  1029.94  8.72
495.4  12046.65  1072.01  8.90
496.9  12294.54  1112.72  9.05
498.4  12517.73  1161.73  9.28
499.9  12757.59  1210.21  9.49
501.4  12967.10  1253.96  9.67
502.8  13167.90  1304.92  9.91
504.3  13356.00  1355.40  10.15
505.8  13532.64  1405.65  10.39
507.2  13653.03  1453.37  10.65
508.7  13733.86  1494.92  10.88
510.2  13811.90  1540.89  11.16
511.6  13850.98  1586.67  11.46
513.1  13952.07  1639.80  11.75
514.6  14083.63  1694.44  12.03
516.0  14176.22  1744.12  12.30
517.5  14324.40  1807.97  12.62
519.0  14516.61  1874.64  12.91
520.5  14705.88  1945.53  13.23
521.9  14943.04  2022.83  13.54
523.4  15216.30  2106.04  13.84
524.8  15479.11  2191.05  14.15
526.3  15779.75  2280.07  14.45
527.8  16093.22  2372.18  14.74
529.2  16374.94  2458.63  15.01
530.7  16687.76  2551.44  15.29
532.1  16977.45  2639.61  15.55
533.6  17305.95  2729.69  15.77
535.0  17642.05  2824.09  16.01
536.5  17959.86  2912.61  16.22
538.0  18296.96  2999.57  16.39
539.4  18617.01  3089.22  16.59
540.9  19032.18  3192.01  16.77
542.3  19389.48  3289.99  16.97
543.8  19636.33  3373.39  17.18
545.2  19717.73  3420.58  17.35
546.6  19737.60  3450.23  17.48
548.1  19771.95  3481.28  17.61
549.5  19805.43  3514.74  17.75
551.0  19831.07  3544.80  17.87
552.4  19899.88  3584.50  18.01
553.9  19933.44  3615.74  18.14
555.3  19999.98  3651.57  18.26
556.8  20123.97  3705.84  18.42
558.2  20246.63  3757.56  18.56
559.6  20393.50  3819.26  18.73
561.1  20605.00  3892.20  18.89
562.5  20829.30  3975.86  19.09
564.0  21126.47  4074.19  19.28
565.4  21384.43  4173.05  19.51
566.8  21713.10  4289.40  19.75
568.3  22021.29  4398.49  19.97
569.7  22352.81  4516.35  20.20
571.1  22660.54  4636.58  20.46
572.6  22973.22  4757.24  20.71
574.0  23279.85  4876.08  20.95
575.4  23564.25  4994.72  21.20
576.9  23842.67  5114.80  21.45
578.3  24074.05  5229.39  21.72
579.7  24317.20  5348.52  21.99
581.1  24492.51  5457.57  22.28
582.6  24686.64  5574.15  22.58
584.0  24876.08  5690.43  22.88
585.4  25137.58  5831.29  23.20
586.8  25504.55  6000.38  23.53
588.3  25894.44  6187.27  23.89
589.7  26233.74  6358.48  24.24
591.1  26441.64  6500.15  24.58
592.5  26550.44  6616.00  24.92
594.0  26608.92  6717.20  25.24
595.4  26635.24  6806.76  25.56
596.8  26647.34  6906.83  25.92
598.2  26668.29  7011.11  26.29
599.6  26680.23  7115.35  26.67
601.0  26758.95  7245.00  27.08
602.4  26834.33  7378.01  27.49
603.9  26975.39  7529.13  27.91
605.3  27102.78  7682.31  28.35
606.7  27226.80  7835.10  28.78
608.1  27444.15  8016.75  29.21
609.5  27689.41  8207.73  29.64
610.9  27979.98  8423.10  30.10
612.3  28249.88  8630.56  30.55
613.7  28618.00  8876.72  31.02
615.1  28876.50  9085.93  31.46
616.5  29132.36  9305.52  31.94
617.9  29521.26  9583.75  32.46
619.3  29889.92  9874.92  33.04
620.7  30341.01  10201.47  33.62
622.1  30804.46  10549.17  34.25
623.5  31323.18  10917.75  34.86
624.9  31924.73  11302.58  35.40
626.3  32331.89  11617.62  35.93
627.7  32041.29  11670.20  36.42
629.1  31768.38  11704.13  36.84
630.5  31664.32  11778.27  37.20
631.9  31707.18  11909.14  37.56
633.3  31762.13  12056.73  37.96
634.7  31918.97  12253.46  38.39
636.1  31997.14  12366.88  38.65
637.5  32098.28  12472.74  38.86
638.9  32261.24  12592.83  39.03
640.2  32390.38  12723.48  39.28
641.6  32437.08  12848.47  39.61
643.0  32408.71  12956.06  39.98
644.4  32404.35  13081.01  40.37
645.8  32321.00  13198.10  40.83
647.2  32465.68  13422.14  41.34
648.5  32534.36  13650.08  41.96
649.9  32389.70  13815.66  42.65
651.3  32249.85  14010.13  43.44
652.7  32010.15  14167.97  44.26
654.1  31763.52  13986.25  44.03
655.5  31554.08  13703.31  43.43
656.8  31352.55  13417.99  42.80
658.2  31560.50  13328.50  42.23
659.6  31924.89  13340.60  41.79
660.9  32233.98  13332.25  41.36
662.3  32527.31  13294.49  40.87
663.7  32810.40  13246.17  40.37
665.0  33053.44  13190.07  39.91
666.4  33302.26  13140.97  39.46
667.8  33605.42  13133.92  39.08
669.1  33877.47  13116.84  38.72
670.5  34171.03  13147.85  38.48
671.9  34359.72  13171.19  38.33
673.2  34630.03  13253.44  38.27
674.6  34867.19  13363.46  38.33
676.0  35155.82  13530.80  38.49
677.3  35443.21  13750.67  38.80
678.7  35768.00  14051.07  39.28
680.0  36183.65  14466.03  39.98
681.4  36646.41  15019.72  40.99
682.8  37075.68  15687.95  42.31
684.1  37526.58  16494.89  43.96
685.5  37925.87  17388.17  45.85
686.8  38329.26  18367.67  47.92
688.2  38686.15  19356.42  50.03
689.5  38850.20  20265.50  52.16
690.9  38981.61  21139.19  54.23
692.2  39083.85  21945.30  56.15
693.6  39201.36  22704.72  57.92
694.9  39187.75  23356.46  59.60
696.2  39254.96  23972.85  61.07
697.6  39323.35  24514.31  62.34
698.9  39404.64  25012.06  63.47
700.3  39505.32  25469.93  64.47
701.6  39618.65  25872.02  65.30
703.0  39738.75  26232.00  66.01
704.3  39804.86  26524.33  66.64
705.6  39846.78  26783.63  67.22
707.0  39923.98  27021.33  67.68
708.3  39866.99  27187.86  68.20
709.6  39798.03  27315.61  68.64
711.0  39711.49  27390.94  68.97
712.3  39610.00  27454.29  69.31
713.6  39584.16  27533.98  69.56
714.9  39531.60  27585.52  69.78
716.3  39554.50  27672.82  69.96
717.6  39599.56  27768.06  70.12
718.9  39559.43  27786.85  70.24
720.2  39418.96  27729.32  70.35
721.6  39324.48  27671.36  70.37
722.9  39177.39  27594.09  70.43
724.2  38953.15  27485.44  70.56
725.5  38804.60  27409.30  70.63
726.8  38649.46  27314.36  70.67
728.1  38599.91  27268.17  70.64
729.5  38524.75  27211.56  70.63
730.8  38475.56  27159.83  70.59
732.1  38400.70  27092.32  70.55
733.4  38372.85  27061.04  70.52
734.7  38320.98  27019.06  70.51
736.0  38344.02  27026.74  70.48
737.3  38278.76  27011.77  70.57
738.6  38382.45  27089.88  70.58
739.9  38561.99  27225.75  70.60
741.2  38705.94  27344.50  70.65
742.5  38966.55  27570.63  70.75
743.8  39423.04  27917.12  70.81
745.1  40090.50  28438.84  70.94
746.4  40885.85  29033.93  71.01
747.7  41715.16  29624.03  71.02
749.0  42545.70  30161.23  70.89
750.3  43049.23  30454.03  70.74
751.6  43038.08  30398.95  70.63
752.9  42609.35  30144.05  70.75
754.2  42168.53  29861.48  70.81
755.4  41635.13  29600.98  71.10
756.7  41457.00  29540.00  71.25
758.0  41479.52  29607.17  71.38
759.3  41746.58  29853.97  71.51
760.6  42119.00  30165.62  71.62
761.9  42454.12  30467.33  71.77
763.1  42660.98  30654.80  71.86
764.4  42919.91  30855.12  71.89
765.7  43101.50  31024.07  71.98
767.0  43256.15  31163.93  72.05
768.2  43391.04  31300.42  72.14
769.5  43460.35  31406.60  72.26
770.8  43687.96  31581.98  72.29
772.0  43738.21  31656.38  72.38
773.3  43838.34  31744.32  72.41
774.6  43948.81  31861.63  72.50
775.8  44076.34  31946.28  72.48
777.1  44128.01  32002.09  72.52
778.4  44093.37  32012.20  72.60
779.6  44094.60  32034.61  72.65
780.9  44024.00  32024.13  72.74
782.1  43873.04  31975.77  72.88
783.4  43892.16  32017.72  72.95
784.6  43917.08  32082.02  73.05
785.9  44234.28  32367.71  73.17
787.1  44820.11  32818.02  73.22
788.4  45328.07  33093.25  73.01
789.6  45372.96  32993.08  72.72
790.9  44999.95  32676.08  72.61
792.1  44544.64  32406.29  72.75
793.4  44076.62  32115.98  72.86
794.6  43779.45  31885.76  72.83
795.8  43541.19  31717.92  72.85
797.1  43256.63  31559.57  72.96
798.3  43047.26  31452.74  73.07
799.5  42927.57  31391.88  73.13
800.8  42825.90  31314.56  73.12
802.0  42691.40  31249.32  73.20
803.2  42569.36  31141.59  73.15
804.5  42497.93  31085.70  73.15
805.7  42375.83  31001.14  73.16
806.9  42272.55  30926.87  73.16
808.1  42169.77  30862.29  73.19
809.4  42153.38  30825.20  73.13
810.6  42060.20  30783.18  73.19
811.8  42044.14  30789.54  73.23
813.0  42084.91  30812.66  73.22
814.2  42127.75  30861.72  73.26
815.4  42236.79  30927.06  73.22
816.6  42301.14  30948.19  73.16
817.9  42391.83  30967.45  73.05
819.1  42365.34  30917.42  72.98
820.3  42273.78  30815.95  72.90
821.5  42198.18  30748.99  72.87
822.7  42149.23  30696.92  72.83
823.9  42186.24  30677.79  72.72
825.1  42220.30  30657.28  72.61
826.3  42272.51  30649.46  72.50
827.5  42328.13  30635.90  72.38
828.7  42417.12  30629.22  72.21
829.9  42510.53  30614.41  72.02
831.0  42609.44  30637.47  71.90
832.2  42758.13  30673.83  71.74
833.4  42849.53  30705.57  71.66
834.6  42979.69  30759.84  71.57
835.8  43101.45  30811.57  71.49
837.0  43207.85  30888.00  71.49
838.1  43396.04  31010.09  71.46
839.3  43498.84  31093.98  71.48
840.5  43625.57  31187.67  71.49
841.7  43776.18  31318.65  71.54
842.9  43948.14  31469.28  71.61
844.0  44059.79  31582.45  71.68
845.2  44241.86  31729.36  71.72
846.4  44382.22  31853.55  71.77
847.5  44619.40  32010.94  71.74
848.7  44816.42  32161.50  71.76
849.9  45018.15  32275.61  71.69
851.0  45136.02  32314.29  71.59
852.2  45223.42  32345.13  71.52
853.3  45246.20  32340.47  71.48
854.5  45259.51  32326.51  71.42
855.6  45267.21  32334.67  71.43
856.8  45301.69  32362.69  71.44
857.9  45313.04  32364.88  71.43
859.1  45415.00  32429.51  71.41
860.2  45473.48  32459.02  71.38
861.4  45514.89  32500.78  71.41
862.5  45544.75  32527.93  71.42
863.7  45635.91  32572.89  71.38
864.8  45619.00  32592.09  71.44
865.9  45579.36  32558.71  71.43
867.1  45659.13  32576.53  71.35
868.2  45643.16  32577.56  71.37
869.3  45709.35  32573.64  71.26
870.5  45625.80  32510.02  71.25
871.6  45591.62  32512.39  71.31
872.7  45685.87  32542.98  71.23
873.9  45732.39  32538.59  71.15
875.0  45707.10  32517.75  71.14
876.1  45729.74  32504.81  71.08
877.2  45749.63  32506.44  71.05
878.3  45750.96  32481.80  71.00
879.4  45782.70  32489.48  70.96
880.5  45838.08  32487.41  70.87
881.7  45807.45  32428.28  70.79
882.8  45892.11  32424.28  70.65
883.9  45950.60  32365.97  70.44
885.0  45870.83  32259.23  70.33
886.1  45891.73  32149.26  70.05
887.2  45762.08  31993.35  69.91
888.3  45654.92  31867.92  69.80
889.4  45608.33  31747.08  69.61
890.5  45529.28  31664.28  69.55
891.6  45491.45  31578.45  69.42
892.7  45454.64  31499.17  69.30
893.8  45497.68  31509.50  69.26
894.9  45513.05  31474.46  69.15
896.0  45511.22  31421.62  69.04
897.0  45516.23  31416.04  69.02
898.1  45518.04  31396.39  68.98
899.2  45541.84  31340.99  68.82
900.3  45447.60  31252.11  68.77
901.4  45393.41  31169.83  68.67
902.4  45399.18  31127.89  68.56
903.5  45331.76  31041.99  68.48
904.6  45331.53  31005.83  68.40
905.7  45413.14  30966.58  68.19
906.7  45351.95  30911.33  68.16
907.8  45461.39  30895.47  67.96
908.9  45371.01  30796.06  67.88
909.9  45376.10  30732.35  67.73
911.0  45349.88  30631.76  67.55
912.1  45250.84  30528.82  67.47
913.1  45201.00  30413.60  67.29
914.2  45070.85  30296.75  67.22
915.2  45104.85  30217.09  66.99
916.3  45094.35  30146.99  66.85
917.3  45127.87  30053.26  66.60
918.4  44963.33  29904.66  66.51
919.4  45017.27  29815.10  66.23
920.5  45038.80  29677.06  65.89
921.5  45047.17  29585.04  65.68
922.6  44963.24  29444.31  65.49
923.6  45028.42  29345.28  65.17
924.7  45107.00  29228.54  64.80
925.7  45112.44  29096.84  64.50
926.7  45163.49  28988.96  64.19
927.8  45183.35  28854.40  63.86
928.8  45409.02  28755.32  63.33
929.9  45525.24  28664.58  62.96
930.9  45738.51  28621.01  62.58
931.9  45945.48  28596.37  62.24
932.9  46297.35  28594.24  61.76
934.0  46389.58  28483.68  61.40
935.0  46434.83  28362.44  61.08
936.0  46444.25  28174.91  60.66
937.0  46426.19  28012.73  60.34
938.1  46370.49  27836.23  60.03
939.1  46363.52  27664.69  59.67
940.1  46520.48  27544.45  59.21
941.1  46761.80  27508.39  58.83
942.1  46953.11  27460.76  58.49
943.1  47204.27  27394.62  58.03
944.1  47444.18  27360.76  57.67
945.2  47562.06  27195.31  57.18
946.2  47690.89  27033.63  56.69
947.2  47775.50  26872.60  56.25
948.2  47985.58  26762.60  55.77
949.2  48136.56  26575.71  55.21
950.2  48233.65  26397.14  54.73
951.2  48323.52  26218.56  54.26
952.2  48463.74  26053.62  53.76
953.2  48695.24  25882.07  53.15
954.2  48797.78  25741.57  52.75
955.2  48960.29  25564.22  52.21
956.2  48906.22  25405.46  51.95
957.2  49060.45  25266.74  51.50
958.2  49199.73  25208.68  51.24
959.2  49317.30  25085.45  50.87
960.1  49392.04  25046.06  50.71
961.1  49506.93  25007.61  50.51
962.1  49590.00  24958.28  50.33
963.1  49637.84  24947.83  50.26
964.1  49794.22  24944.42  50.10
965.1  50008.78  24996.71  49.98
966.1  50066.51  24949.98  49.83
967.0  50150.17  25000.91  49.85
968.0  50264.18  25015.68  49.77
969.0  50418.40  25009.47  49.60
970.0  50457.74  25053.03  49.65
971.0  50491.56  25118.95  49.75
971.9  50612.30  25187.28  49.77
972.9  50699.43  25193.17  49.69
973.9  50862.18  25247.08  49.64
974.9  50875.49  25328.22  49.78
975.8  51031.74  25404.23  49.78
976.8  51085.74  25508.87  49.93
977.8  51067.57  25563.52  50.06
978.8  51177.15  25717.97  50.25
979.7  51448.01  25880.47  50.30
980.7  51535.44  26010.29  50.47
981.7  51694.75  26225.63  50.73
982.6  52042.84  26499.92  50.92
983.6  52579.15  26932.74  51.22
984.6  52890.69  27236.29  51.50
985.5  53426.52  27707.99  51.86
986.5  54145.83  28234.88  52.15
987.5  55267.97  28730.79  51.98
988.4  56124.20  29452.76  52.48
989.4  57550.09  30044.22  52.21
990.4  59555.76  30575.85  51.34
991.3  60159.14  31573.61  52.48
992.3  61819.87  32168.51  52.04
993.2  64401.37  33060.87  51.34
994.2  65783.25  33228.97  50.51
995.2  66865.63  34244.15  51.21
996.1  67239.15  35473.74  52.76
997.1  67748.72  34699.50  51.22
998.0  68177.40  34602.60  50.75
999.0  68291.84  34699.96  50.81
1000.0  67877.72  34751.39  51.20
1000.9  69647.73  34784.52  49.94
1001.9  68518.52  35110.67  51.24
1002.8  68157.23  34719.77  50.94
1003.8  68953.18  34607.51  50.19
1004.8  68910.36  34805.06  50.51
961.5  56655.07  24492.52  43.23
965.5  55527.70  24394.66  43.93
969.5  53038.24  23952.06  45.16
973.4  50487.36  23275.28  46.10
977.4  48670.38  22819.16  46.89
981.4  47904.02  22785.02  47.56
985.3  47871.91  23002.82  48.05
989.3  48250.25  23384.81  48.47
993.3  48675.97  23762.49  48.82
997.2  48896.32  24016.16  49.12
1001.2  48932.78  24259.69  49.58
1005.2  48882.01  24527.95  50.18
1009.1  48947.63  24901.30  50.87
1013.1  49129.58  25365.99  51.63
1017.1  49323.49  25841.07  52.39
1021.0  49414.49  26250.11  53.12
1025.0  49463.51  26635.32  53.85
1029.0  49330.65  26919.77  54.57
1032.9  49190.57  27207.87  55.31
1036.9  49188.06  27583.22  56.08
1040.9  49321.15  28013.39  56.80
1044.8  49555.46  28482.45  57.48
1048.8  49763.47  28905.48  58.09
1052.7  49927.70  29253.10  58.59
1056.7  50023.36  29509.46  58.99
1060.7  50077.97  29698.22  59.30
1064.6  50107.10  29828.85  59.53
1068.6  50042.80  29846.98  59.64
1072.5  49987.91  29816.02  59.65
1076.5  49968.24  29770.97  59.58
1080.4  49982.60  29677.80  59.38
1084.4  50098.78  29595.17  59.07
1088.3  50235.79  29478.45  58.68
1092.3  50255.62  29233.55  58.17
1096.2  50256.56  28971.66  57.65
1100.2  50314.19  28725.95  57.09
1104.1  50217.00  28380.97  56.52
1108.1  50149.09  28063.61  55.96
1112.0  50046.48  27694.58  55.34
1116.0  49816.26  27226.34  54.65
1119.9  49626.65  26700.42  53.80
1123.9  49721.95  26174.74  52.64
1127.8  49701.12  25405.44  51.12
1131.8  49690.02  24417.02  49.14
1135.7  49759.69  23271.81  46.77
1139.6  49794.79  22025.71  44.23
1143.6  49779.05  20845.83  41.88
1147.5  49763.91  19860.35  39.91
1151.4  49638.34  19064.64  38.41
1155.4  49664.96  18569.14  37.39
1159.3  49707.76  18264.84  36.74
1163.2  49565.69  18008.89  36.33
1167.2  49549.38  17869.92  36.06
1171.1  49585.36  17777.76  35.85
1175.0  49527.04  17672.16  35.68
1179.0  49496.46  17577.14  35.51
1182.9  49601.09  17529.55  35.34
1186.8  49595.04  17450.56  35.19
1190.7  49374.50  17295.93  35.03
1194.7  49102.19  17147.41  34.92
1198.6  48856.50  17045.49  34.89
1202.5  48670.31  16994.83  34.92
1206.4  48530.81  16980.28  34.99
1210.3  48416.28  16995.17  35.10
1214.2  48280.28  17027.49  35.27
1218.2  48108.01  17066.62  35.48
1222.1  47952.55  17118.43  35.70
1226.0  47838.35  17191.35  35.94
1229.9  47741.34  17265.28  36.16
1233.8  47631.90  17319.65  36.36
1237.7  47561.43  17383.44  36.55
1241.6  47466.83  17430.12  36.72
1245.5  47305.84  17448.29  36.88
1249.4  47168.26  17466.84  37.03
1253.3  47043.81  17479.49  37.16
1257.2  46964.39  17498.10  37.26
1261.1  46857.20  17486.28  37.32
1265.0  46722.82  17446.70  37.34
1268.9  46520.84  17358.41  37.31
1272.8  46583.25  17335.60  37.21
1276.7  46779.70  17353.01  37.10
1280.6  46878.95  17299.79  36.90
1284.5  46815.30  17140.92  36.61
1288.4  46796.02  16974.84  36.27
1292.3  46670.25  16745.67  35.88
1296.2  46517.96  16471.27  35.41
1300.1  46340.11  16156.37  34.86
1303.9  46091.28  15784.00  34.25
1307.8  45847.70  15384.47  33.56
1311.7  45593.83  14963.03  32.82
1315.6  45327.77  14521.18  32.04
1319.5  45069.41  14052.65  31.18
1323.3  44835.68  13581.61  30.29
1327.2  44616.78  13116.17  29.40
1331.1  44372.40  12652.36  28.51
1335.0  44053.27  12180.94  27.65
1338.8  43798.92  11748.31  26.82
1342.7  43539.15  11347.74  26.06
1346.5  42992.99  10914.30  25.39
1350.4  42429.86  10512.03  24.78
1354.3  41738.36  10091.40  24.18
1358.1  41058.17  9690.52  23.60
1362.0  40701.75  9372.40  23.03
1365.8  40680.76  9105.70  22.38
1369.7  40927.57  8859.16  21.65
1373.5  40954.04  8489.89  20.73
1377.4  40635.84  7965.06  19.60
1381.2  40344.10  7361.22  18.25
1385.1  40330.05  6782.67  16.82
1389.0  40314.98  6227.20  15.45
1392.8  40168.45  5683.50  14.15
1396.6  40030.19  5197.41  12.98
1400.5  39839.74  4784.74  12.01
1404.3  39710.63  4460.55  11.23
1408.2  39758.14  4223.54  10.62
1412.0  39803.60  4044.38  10.16
1415.8  39924.96  3911.50  9.80
1419.6  39971.53  3804.56  9.52
1423.5  40011.45  3724.83  9.31
1427.3  40026.56  3664.43  9.15
1431.1  40036.50  3624.68  9.05
1434.9  39977.24  3587.49  8.97
1438.8  39952.27  3561.25  8.91
1442.6  39935.32  3547.40  8.88
1446.4  39832.71  3529.73  8.86
1450.2  39778.38  3514.41  8.83
1454.0  39690.24  3502.84  8.83
1457.8  39686.58  3508.00  8.84
1461.6  39672.17  3520.24  8.87
1465.4  39537.83  3530.87  8.93
1469.2  39343.85  3548.24  9.02
1473.0  39196.28  3580.96  9.14
1476.8  39147.43  3635.69  9.29
1480.7  39105.36  3702.62  9.47
1484.4  38999.40  3774.16  9.68
1488.2  38915.04  3860.80  9.92
1492.0  38789.89  3953.73  10.19
1495.8  38663.63  4041.16  10.45
1499.6  38551.56  4112.08  10.67
1503.4  38422.38  4141.28  10.78
1507.2  38304.64  4149.75  10.83
1510.9  38153.41  4172.88  10.94
1514.7  37980.41  4229.45  11.14
1518.5  37846.78  4292.63  11.34
1522.3  37695.53  4334.48  11.50
1526.0  37576.94  4392.94  11.69
1529.8  37508.42  4478.45  11.94
1533.6  37372.43  4556.14  12.19
1537.3  37232.31  4625.13  12.42
1541.1  37087.90  4697.86  12.67
1544.8  36940.80  4763.20  12.89
1548.6  36788.41  4825.63  13.12
1552.4  36680.39  4891.20  13.33
1556.1  36595.85  4940.50  13.50
1559.9  36510.89  4980.32  13.64
1563.6  36389.25  5033.62  13.83
1567.3  36261.08  5107.43  14.09
1571.1  36027.76  5166.84  14.34
1574.8  35864.68  5230.71  14.58
1578.6  35753.14  5291.01  14.80
1582.3  35603.27  5332.25  14.98
1586.0  35458.40  5364.65  15.13
1589.8  35308.05  5389.44  15.26
1593.5  35146.06  5411.71  15.40
1597.2  35001.78  5443.07  15.55
1600.9  34836.29  5469.23  15.70
1604.7  34670.48  5491.66  15.84
1608.4  34533.32  5525.78  16.00
1612.1  34365.30  5549.33  16.15
1615.8  34213.32  5574.70  16.29
1619.5  34118.37  5617.71  16.47
1623.2  33952.91  5637.49  16.60
1626.9  33755.41  5651.34  16.74
1630.6  33570.24  5665.22  16.88
1634.3  33414.34  5679.08  17.00
1638.0  33259.75  5683.53  17.09
1641.7  33073.14  5670.32  17.14
1645.4  32874.41  5654.63  17.20
1649.1  32674.46  5633.45  17.24
1652.8  32507.90  5612.16  17.26
1656.4  32336.26  5584.55  17.27
1660.1  32165.72  5567.23  17.31
1663.8  31960.26  5545.24  17.35
1667.5  31794.51  5520.89  17.36
1671.1  31650.46  5492.72  17.35
1674.8  31441.84  5453.78  17.35
1678.5  31371.89  5433.52  17.32
1682.1  31381.11  5420.97  17.27
1685.8  31377.26  5400.92  17.21
1689.5  31257.76  5360.86  17.15
1693.1  31118.10  5313.54  17.08
1696.8  30960.50  5259.04  16.99
1700.4  30804.02  5199.11  16.88
1704.0  30679.79  5138.02  16.75
1707.7  30408.79  5049.03  16.60
1711.3  30089.85  4946.97  16.44
1715.0  29858.81  4857.72  16.27
1718.6  29688.84  4776.82  16.09
1722.2  29536.53  4703.63  15.92
1725.9  29383.10  4629.74  15.76
1729.5  29232.64  4561.99  15.61
1733.1  29099.87  4515.72  15.52
1736.7  28972.72  4481.33  15.47
1740.3  28797.48  4433.95  15.40
1744.0  28706.48  4387.87  15.29
1747.5  28553.32  4323.73  15.14
1751.2  28328.76  4238.88  14.96
1754.8  28162.08  4167.39  14.80
1758.4  28012.00  4106.04  14.66
1762.0  27824.68  4034.22  14.50
1765.5  27686.12  3985.65  14.40
1769.1  27631.20  3966.40  14.35
1772.7  27550.98  3935.74  14.29
1776.3  27422.05  3894.35  14.20
1779.9  27285.86  3857.00  14.14
1783.5  27208.08  3833.25  14.09
1787.0  27069.17  3805.98  14.06
1790.6  26900.34  3768.18  14.01
1794.2  26761.57  3744.41  13.99
1797.8  26609.42  3730.96  14.02
1801.3  26471.41  3714.88  14.03
1804.9  26273.63  3690.75  14.05
1808.4  26121.50  3675.21  14.07
1812.0  25898.39  3653.49  14.11
1815.5  25662.18  3626.05  14.13
1819.1  25416.01  3588.50  14.12
1822.6  25229.41  3561.32  14.12
1826.2  25052.89  3537.88  14.12
1829.7  24814.53  3506.34  14.13
1833.2  24532.39  3459.50  14.10
1836.8  24323.85  3415.38  14.04
1840.3  24302.43  3394.50  13.97
1843.8  24383.87  3393.41  13.92
1847.3  24575.60  3416.13  13.90
1850.8  24780.67  3431.23  13.85
1854.3  24887.49  3414.06  13.72
1857.8  24949.60  3366.13  13.49
1861.3  24825.68  3260.18  13.13
1864.8  24392.94  3088.16  12.66
1868.3  23761.08  2837.62  11.94
1871.8  23370.24  2588.16  11.07
1875.3  23367.44  2408.17  10.31
1878.8  23464.96  2276.37  9.70
1882.3  23475.50  2146.24  9.14
1885.8  23370.21  2013.11  8.61
1889.3  23238.03  1915.65  8.24
1892.7  23179.77  1841.63  7.94
1896.2  23152.80  1820.07  7.86
1899.7  23220.17  1831.26  7.89
1903.1  23595.26  1871.41  7.93
1906.6  24198.88  1979.13  8.18
1910.0  24996.75  2175.14  8.70
1913.5  25752.93  2459.29  9.55
1917.0  26142.90  2744.76  10.50
1920.4  26070.90  3035.44  11.64
1923.8  25791.11  3196.80  12.39
1871.2  20821.49  1873.44  9.00
1873.9  21154.52  1854.15  8.76
1876.7  21427.81  1787.32  8.34
1879.5  21583.92  1658.36  7.68
1882.3  21336.24  1545.71  7.24
1885.1  21256.92  1430.92  6.73
1887.8  21210.43  1363.45  6.43
1890.6  20840.49  1309.84  6.29
1893.4  20724.00  1224.67  5.91
1896.2  20547.48  1185.08  5.77
1898.9  20291.31  1175.47  5.79
1901.7  20039.24  1146.28  5.72
1904.5  20117.87  1147.93  5.71
1907.2  20073.50  1143.17  5.69
1910.0  20055.94  1115.42  5.56
1912.7  20136.77  1095.58  5.44
1915.5  20171.47  1095.13  5.43
1918.2  20249.79  1085.43  5.36
1921.0  20279.29  1071.62  5.28
1923.7  20433.55  1081.65  5.29
1926.5  20471.41  1070.36  5.23
1929.2  20497.01  1066.75  5.20
1932.0  20543.16  1062.81  5.17
1934.7  20545.33  1050.56  5.11
1937.4  20505.12  1062.84  5.18
1940.2  20499.13  1079.76  5.27
1942.9  20605.52  1070.83  5.20
1945.6  20659.82  1079.15  5.22
1948.3  20631.15  1094.03  5.30
1951.1  20579.37  1082.60  5.26
1953.8  20577.00  1085.00  5.27
1956.5  20518.75  1087.19  5.30
1959.2  20559.24  1093.34  5.32
1961.9  20594.78  1110.55  5.39
1964.6  20533.45  1130.50  5.51
1967.3  20559.00  1134.26  5.52
1970.0  20438.80  1117.89  5.47
1972.8  20359.28  1134.50  5.57
1975.5  20390.09  1146.28  5.62
1978.2  20314.44  1145.61  5.64
1980.9  20180.55  1153.37  5.72
1983.5  20128.58  1157.52  5.75
1986.2  20128.47  1182.43  5.87
1988.9  20105.19  1186.31  5.90
1991.6  19969.62  1173.15  5.87
1994.3  19842.85  1187.11  5.98
1997.0  19848.87  1199.47  6.04
1999.7  19808.76  1207.06  6.09
2002.3  19771.33  1211.08  6.13
2005.0  19699.41  1212.99  6.16
2007.7  19628.07  1222.16  6.23
2010.4  19553.90  1219.09  6.23
2013.0  19499.63  1234.73  6.33
2015.7  19417.11  1241.81  6.40
2018.4  19295.01  1241.51  6.43
2021.0  19232.67  1245.72  6.48
2023.7  19139.36  1245.62  6.51
2026.4  19068.83  1239.33  6.50
2029.0  18984.37  1251.19  6.59
2031.7  18877.30  1252.48  6.63
2034.3  18880.12  1251.54  6.63
2037.0  18784.50  1271.44  6.77
2039.6  18700.23  1272.56  6.81
2042.3  18636.10  1267.50  6.80
2044.9  18549.47  1269.73  6.85
2047.5  18510.20  1280.95  6.92
2050.2  18424.00  1274.00  6.91
2052.8  18356.80  1285.20  7.00
2055.4  18252.86  1287.83  7.06
2058.1  18135.60  1274.93  7.03
2060.7  18047.32  1284.77  7.12
2063.3  17962.85  1278.15  7.12
2065.9  17916.92  1284.17  7.17
2068.6  17833.17  1293.48  7.25
2071.2  17777.88  1284.33  7.22
2073.8  17705.06  1282.57  7.24
2076.4  17659.55  1302.29  7.37
2079.0  17674.90  1303.84  7.38
2081.6  17650.85  1301.64  7.37
2084.2  17570.52  1309.25  7.45
2086.8  17445.16  1307.63  7.50
2089.4  17380.26  1303.92  7.50
2092.1  17277.67  1306.16  7.56
2094.7  17190.13  1316.45  7.66
2097.2  17172.83  1312.78  7.64
2099.8  17145.47  1332.24  7.77
2102.4  17025.88  1338.26  7.86
2105.0  16909.05  1326.20  7.84
2107.6  16850.74  1331.12  7.90
2110.2  16816.98  1331.80  7.92
2112.8  16807.77  1336.22  7.95
2115.3  16803.29  1356.73  8.07
2117.9  16791.95  1369.59  8.16
2120.5  16775.83  1373.94  8.19
2123.1  16698.83  1373.78  8.23
2125.6  16656.36  1374.37  8.25
2128.2  16564.93  1365.78  8.24
2130.8  16444.35  1376.70  8.37
2133.3  16412.00  1382.58  8.42
2135.9  16317.43  1364.93  8.36
2138.4  16156.57  1371.18  8.49
2141.0  16069.75  1371.22  8.53
2143.6  16050.88  1365.18  8.51
2146.1  15893.45  1359.47  8.55
2148.7  15743.47  1345.97  8.55
2151.2  15743.20  1350.31  8.58
2153.8  15735.06  1357.86  8.63
2156.3  15634.95  1357.55  8.68
2158.8  15561.11  1356.57  8.72
2161.4  15502.34  1354.27  8.74
2163.9  15405.04  1356.23  8.80
2166.4  15333.27  1343.31  8.76
2169.0  15294.84  1346.27  8.80
2171.5  15197.27  1346.27  8.86
2174.0  15110.03  1334.78  8.83
2176.5  15084.55  1340.52  8.89
2179.1  15019.18  1343.20  8.94
2181.6  14940.67  1323.13  8.86
2184.1  14910.28  1319.27  8.85
2186.6  14910.22  1326.47  8.90
2189.1  14830.20  1309.68  8.83
2191.6  14798.00  1317.56  8.90
2194.1  14807.99  1316.49  8.89
2196.6  14775.50  1302.06  8.81
2199.2  14832.39  1322.08  8.91
2201.7  14842.43  1335.96  9.00
2204.1  14788.28  1337.73  9.05
2206.6  14763.34  1335.34  9.04
2209.1  14735.01  1332.32  9.04
2211.6  14731.80  1329.80  9.03
2214.1  14746.67  1317.91  8.94
2216.6  14699.55  1314.22  8.94
2219.1  14672.96  1323.09  9.02
2221.6  14617.60  1324.72  9.06
2224.0  14523.72  1300.48  8.95
2226.5  14497.05  1282.29  8.85
2229.0  14549.08  1286.65  8.84
2231.5  14431.44  1258.79  8.72
2233.9  14373.53  1246.86  8.67
2236.4  14401.66  1239.06  8.60
2238.9  14329.75  1227.09  8.56
2241.3  14291.27  1225.59  8.58
2243.8  14264.07  1206.16  8.46
2246.2  14157.59  1192.72  8.42
2248.7  14080.69  1180.14  8.38
2251.2  14070.44  1179.90  8.39
2253.6  14016.00  1180.16  8.42
2256.1  13958.40  1157.12  8.29
2258.5  13995.19  1155.06  8.25
2260.9  13909.55  1122.38  8.07
2263.4  13856.38  1096.48  7.91
2265.8  13836.46  1097.58  7.93
2268.3  13773.19  1080.10  7.84
2270.7  13833.35  1078.57  7.80
2273.1  13782.99  1078.92  7.83
2275.6  13693.44  1075.20  7.85
2278.0  13686.11  1054.35  7.70
2280.4  13653.89  1037.77  7.60
2282.8  13527.60  1029.86  7.61
2285.3  13562.51  1016.15  7.49
2287.7  13663.60  1017.91  7.45
2290.1  13540.17  1004.15  7.42
2292.5  13492.33  989.44  7.33
2294.9  13518.65  974.74  7.21
2297.3  13423.27  953.16  7.10
2299.7  13337.47  923.91  6.93
2302.1  13218.84  924.47  6.99
2304.5  13088.88  917.28  7.01
2306.9  13002.64  893.76  6.87
2309.3  12922.66  890.77  6.89
2311.7  12854.38  876.59  6.82
2314.1  12697.19  875.62  6.90
2316.5  12663.16  874.68  6.91
2318.9  12652.75  867.17  6.85
2321.3  12617.91  875.53  6.94
2323.7  12634.91  887.85  7.03
2326.1  12601.81  879.88  6.98
2328.4  12636.24  870.62  6.89
2330.8  12662.64  875.26  6.91
2333.2  12581.51  862.10  6.85
2335.6  12521.43  859.39  6.86
2337.9  12520.00  851.36  6.80
2340.3  12464.85  848.07  6.80
2342.7  12432.64  813.89  6.55
2345.0  12400.27  796.96  6.43
2347.4  12316.50  813.17  6.60
2349.7  12114.45  774.60  6.39
2352.1  12101.68  776.19  6.41
2354.4  12155.69  789.46  6.49
2356.8  12060.77  779.88  6.47
2359.2  11964.33  777.11  6.50
2361.5  11924.99  766.49  6.43
2363.8  11940.94  768.54  6.44
2366.2  11964.55  770.86  6.44
2368.5  11908.20  752.05  6.32
2370.9  11876.70  748.54  6.30
2373.2  11848.72  755.44  6.38
2375.5  11706.18  746.63  6.38
2377.9  11641.98  732.37  6.29
2380.2  11623.69  736.12  6.33
2382.5  11588.59  756.65  6.53
2384.8  11558.24  726.93  6.29
2387.2  11481.73  703.25  6.12
2389.5  11459.49  711.40  6.21
2391.8  11417.51  698.74  6.12
2394.1  11343.26  698.96  6.16
2396.4  11345.89  706.40  6.23
2398.7  11375.34  698.28  6.14
2401.0  11254.82  684.06  6.08
2403.3  11150.22  672.30  6.03
2405.6  11146.28  664.78  5.96
2407.9  11082.12  681.36  6.15
2410.2  11004.27  668.45  6.07
2412.5  10950.99  638.60  5.83
2414.8  10922.15  652.15  5.97
2417.1  10875.63  631.44  5.81
2419.4  10826.38  619.99  5.73
2421.7  10791.94  644.82  5.98
2424.0  10725.17  619.91  5.78
2426.2  10742.80  606.33  5.64
2428.5  10719.32  596.72  5.57
2430.8  10654.75  601.32  5.64
2433.1  10537.83  608.48  5.77
2435.4  10473.84  587.48  5.61
2437.6  10479.44  593.07  5.66
2439.9  10354.06  602.68  5.82
2442.2  10347.08  597.27  5.77
2444.4  10366.72  570.50  5.50
2446.7  10272.56  556.75  5.42
2448.9  10268.17  566.51  5.52
2451.2  10245.24  578.12  5.64
2453.4  10191.09  560.48  5.50
2455.7  10125.98  563.57  5.57
2457.9  10018.31  529.10  5.28
2460.2  10011.96  528.14  5.28
2462.4  10002.72  561.60  5.61
2464.7  9891.47  548.82  5.55
2466.9  9803.34  539.28  5.50
2469.2  9780.84  529.34  5.41
2471.4  9689.94  533.96  5.51
2473.6  9593.94  511.06  5.33
2475.9  9563.95  512.52  5.36
2478.1  9523.34  496.44  5.21
2480.3  9412.17  473.39  5.03
2482.5  9378.61  471.79  5.03
2484.8  9305.97  456.32  4.90
2487.0  9273.15  464.15  5.01
2489.2  9272.15  474.92  5.12
2491.4  9122.10  453.42  4.97
2493.6  9115.98  433.72  4.76
2495.8  9106.08  461.90  5.07
2498.0  9071.36  467.48  5.15
2500.2  9040.03  480.23  5.31
2502.4  9306.24  526.88  5.66
2504.6  9483.90  507.06  5.35
2506.8  9498.13  477.34  5.03
