/*** Spectra Vista SIG Data ***/
name= GS.sig
comm= SIG file reprocesed for matching/overlap;Averaged Ref/Tar of files: GS1,GS2,GS3
data=
346.4  468.20  191.63  40.93
347.9  473.76  187.21  39.52
349.5  521.04  198.64  38.12
351.1  558.48  205.40  36.78
352.6  585.06  208.20  35.59
354.2  625.05  213.26  34.12
355.7  673.50  228.99  34.00
357.3  724.71  236.37  32.62
358.8  751.43  242.90  32.33
360.4  798.47  252.68  31.65
361.9  821.87  243.77  29.66
363.5  851.78  250.45  29.40
365.1  887.68  256.60  28.91
366.6  918.37  261.82  28.51
368.2  973.68  267.48  27.47
369.7  1008.89  266.10  26.38
371.3  1073.36  270.54  25.20
372.8  1148.72  286.07  24.90
374.4  1191.49  286.47  24.04
375.9  1247.87  293.49  23.52
377.4  1278.23  301.40  23.58
379.0  1330.29  299.69  22.53
380.5  1360.26  304.67  22.40
382.1  1412.49  305.84  21.65
383.6  1460.03  311.38  21.33
385.2  1529.00  318.54  20.83
386.7  1608.26  326.25  20.29
388.3  1679.42  343.76  20.47
389.8  1759.55  357.31  20.31
391.3  1843.67  373.19  20.24
392.9  1897.62  392.61  20.69
394.4  1955.58  417.43  21.35
395.9  2019.02  436.98  21.64
397.5  2131.80  451.66  21.19
399.0  2240.25  466.08  20.80
400.6  2303.62  463.18  20.11
402.1  2342.64  461.39  19.70
403.6  2375.92  467.52  19.68
405.1  2451.81  475.28  19.38
406.7  2542.40  490.93  19.31
408.2  2650.73  504.16  19.02
409.7  2746.24  521.55  18.99
411.3  2843.51  543.92  19.13
412.8  2936.43  564.85  19.24
414.3  3034.90  582.10  19.18
415.8  3152.50  603.33  19.14
417.4  3253.58  624.49  19.19
418.9  3339.60  637.56  19.09
420.4  3424.70  643.07  18.78
421.9  3487.22  655.42  18.79
423.5  3546.87  664.31  18.73
425.0  3613.98  667.13  18.46
426.5  3695.85  670.80  18.15
428.0  3801.23  685.19  18.03
429.5  3926.30  697.84  17.77
431.1  4071.24  714.34  17.55
432.6  4225.66  736.32  17.42
434.1  4373.60  761.34  17.41
435.6  4514.36  783.68  17.36
437.1  4642.95  805.03  17.34
438.6  4769.06  828.90  17.38
440.1  4906.69  860.07  17.53
441.6  5042.30  894.12  17.73
443.1  5179.95  931.84  17.99
444.7  5318.34  971.68  18.27
446.2  5433.01  1016.02  18.70
447.7  5551.25  1065.80  19.20
449.2  5676.48  1106.28  19.49
450.7  5788.64  1142.61  19.74
452.2  5916.62  1177.69  19.90
453.7  6028.91  1219.94  20.23
455.2  6201.73  1265.18  20.40
456.7  6390.56  1311.79  20.53
458.2  6607.30  1361.01  20.60
459.7  6823.25  1409.04  20.65
461.2  7031.76  1462.60  20.80
462.7  7219.07  1500.92  20.79
464.2  7396.86  1541.78  20.84
465.7  7583.22  1582.73  20.87
467.2  7742.35  1621.81  20.95
468.7  7912.00  1665.67  21.05
470.2  8015.91  1713.75  21.38
471.7  8177.13  1764.63  21.58
473.2  8446.52  1800.38  21.32
474.6  8688.33  1828.71  21.05
476.1  8747.12  1849.70  21.15
477.6  8779.39  1877.24  21.38
479.1  8829.54  1902.67  21.55
480.6  8916.06  1933.68  21.69
482.1  9046.91  1971.65  21.79
483.6  9204.08  2015.49  21.90
485.1  9394.00  2077.31  22.11
486.6  9626.34  2145.87  22.29
488.0  9867.00  2229.50  22.60
489.5  10130.90  2326.95  22.97
491.0  10387.73  2429.77  23.39
492.5  10649.88  2551.23  23.96
494.0  10928.34  2684.67  24.57
495.4  11158.95  2824.53  25.31
496.9  11406.10  2978.17  26.11
498.4  11649.48  3141.85  26.97
499.9  11878.23  3327.94  28.02
501.4  12101.58  3522.87  29.11
502.8  12308.24  3728.45  30.29
504.3  12497.40  3946.50  31.58
505.8  12681.02  4179.19  32.96
507.2  12808.72  4402.59  34.37
508.7  12896.48  4631.11  35.91
510.2  12964.78  4861.56  37.50
511.6  13008.39  5088.24  39.12
513.1  13093.74  5333.55  40.73
514.6  13195.49  5586.66  42.34
516.0  13281.41  5843.04  43.99
517.5  13429.99  6127.66  45.63
519.0  13603.01  6430.51  47.27
520.5  13772.72  6728.10  48.85
521.9  13993.28  7045.02  50.35
523.4  14243.35  7375.02  51.78
524.8  14493.24  7699.14  53.12
526.3  14778.04  8029.58  54.33
527.8  15074.01  8352.26  55.41
529.2  15339.71  8648.91  56.38
530.7  15629.94  8954.94  57.29
532.1  15903.48  9231.86  58.05
533.6  16214.37  9523.92  58.74
535.0  16534.98  9816.06  59.37
536.5  16856.03  10093.83  59.88
538.0  17178.24  10371.16  60.37
539.4  17501.02  10635.73  60.77
540.9  17879.62  10928.99  61.13
542.3  18237.67  11191.15  61.36
543.8  18504.51  11390.13  61.55
545.2  18600.74  11508.41  61.87
546.6  18637.00  11585.24  62.16
548.1  18690.38  11662.67  62.40
549.5  18745.60  11729.03  62.57
551.0  18790.92  11776.28  62.67
552.4  18868.34  11842.91  62.77
553.9  18922.09  11884.11  62.81
555.3  18999.63  11919.96  62.74
556.8  19143.87  11987.17  62.62
558.2  19276.31  12044.81  62.49
559.6  19441.66  12113.10  62.30
561.1  19660.88  12208.08  62.09
562.5  19883.82  12314.41  61.93
564.0  20177.05  12445.69  61.68
565.4  20444.07  12555.89  61.42
566.8  20774.24  12691.36  61.09
568.3  21077.79  12795.70  60.71
569.7  21403.31  12895.00  60.25
571.1  21706.83  12975.96  59.78
572.6  22010.94  13045.32  59.27
574.0  22299.75  13104.85  58.77
575.4  22570.31  13153.78  58.28
576.9  22820.49  13199.05  57.84
578.3  23040.88  13235.25  57.44
579.7  23243.15  13263.56  57.06
581.1  23410.31  13273.38  56.70
582.6  23592.46  13292.54  56.34
584.0  23735.52  13296.99  56.02
585.4  23971.18  13342.33  55.66
586.8  24286.87  13432.72  55.31
588.3  24642.54  13546.26  54.97
589.7  24935.04  13636.35  54.69
591.1  25126.37  13678.86  54.44
592.5  25213.30  13678.32  54.25
594.0  25248.06  13650.78  54.07
595.4  25246.58  13617.01  53.94
596.8  25248.80  13575.35  53.77
598.2  25256.70  13537.76  53.60
599.6  25254.00  13494.33  53.43
601.0  25321.45  13484.23  53.25
602.4  25392.58  13461.27  53.01
603.9  25508.50  13458.29  52.76
605.3  25652.08  13456.35  52.46
606.7  25770.60  13433.10  52.13
608.1  26003.60  13447.23  51.71
609.5  26249.20  13465.96  51.30
610.9  26543.12  13497.58  50.85
612.3  26820.62  13509.36  50.37
613.7  27191.20  13555.97  49.85
615.1  27470.34  13538.61  49.28
616.5  27748.85  13527.48  48.75
617.9  28163.94  13596.14  48.27
619.3  28559.37  13676.48  47.89
620.7  29021.55  13815.79  47.61
622.1  29524.34  13782.96  46.68
623.5  30070.32  13675.14  45.48
624.9  30686.25  13664.88  44.53
626.3  31117.56  13658.59  43.89
627.7  30854.43  13511.34  43.79
629.1  30617.27  13472.57  44.00
630.5  30534.25  13520.87  44.28
631.9  30583.88  13609.76  44.50
633.3  30636.73  13646.77  44.54
634.7  30802.72  13693.43  44.46
636.1  30887.16  13646.06  44.18
637.5  30991.21  13572.16  43.79
638.9  31137.59  13491.37  43.33
640.2  31275.86  13379.27  42.78
641.6  31334.94  13212.03  42.16
643.0  31307.82  12992.84  41.50
644.4  31297.86  12777.33  40.82
645.8  31223.60  12525.54  40.12
647.2  31327.01  12348.77  39.42
648.5  31378.61  12168.46  38.78
649.9  31215.99  11938.58  38.25
651.3  31061.55  11770.80  37.90
652.7  30880.50  11574.03  37.48
654.1  30705.72  11209.40  36.51
655.5  30448.41  10806.21  35.49
656.8  30219.54  10421.94  34.49
658.2  30347.48  10176.26  33.53
659.6  30667.01  9977.57  32.54
660.9  30915.41  9759.31  31.57
662.3  31175.28  9525.07  30.55
663.7  31418.10  9268.70  29.50
665.0  31622.76  9017.22  28.51
666.4  31821.65  8788.30  27.62
667.8  32088.83  8612.51  26.84
669.1  32304.87  8447.55  26.15
670.5  32567.66  8335.44  25.59
671.9  32723.64  8241.26  25.18
673.2  32957.22  8221.92  24.95
674.6  33165.65  8228.22  24.81
676.0  33416.99  8316.94  24.89
677.3  33670.84  8462.40  25.13
678.7  33959.63  8666.81  25.52
680.0  34360.72  8993.77  26.17
681.4  34770.40  9444.70  27.16
682.8  35166.95  10029.34  28.52
684.1  35575.02  10796.37  30.35
685.5  35948.61  11716.59  32.59
686.8  36307.14  12814.55  35.29
688.2  36654.12  14045.70  38.32
689.5  36792.82  15347.82  41.71
690.9  36894.22  16733.46  45.36
692.2  37000.50  18161.53  49.08
693.6  37086.31  19627.96  52.93
694.9  37102.94  21001.30  56.60
696.2  37172.03  22352.98  60.13
697.6  37238.58  23637.03  63.47
698.9  37321.68  24874.52  66.65
700.3  37412.04  26040.96  69.61
701.6  37521.51  27136.25  72.32
703.0  37648.39  28141.11  74.75
704.3  37727.46  28986.45  76.83
705.6  37779.39  29769.30  78.80
707.0  37853.11  30496.62  80.57
708.3  37804.36  31052.23  82.14
709.6  37779.31  31567.35  83.56
711.0  37700.05  31972.55  84.81
712.3  37603.29  32326.81  85.97
713.6  37599.66  32725.14  87.04
714.9  37564.50  33063.48  88.02
716.3  37606.65  33414.69  88.85
717.6  37655.10  33776.21  89.70
718.9  37643.31  33993.14  90.30
720.2  37519.65  34066.18  90.80
721.6  37437.79  34168.72  91.27
722.9  37295.06  34237.62  91.80
724.2  37099.21  34216.27  92.23
725.5  36957.59  34237.81  92.64
726.8  36833.83  34209.52  92.88
728.1  36764.75  34226.94  93.10
729.5  36694.32  34233.47  93.29
730.8  36660.60  34252.97  93.43
732.1  36590.42  34230.01  93.55
733.4  36549.03  34220.39  93.63
734.7  36509.02  34199.09  93.67
736.0  36510.50  34230.15  93.75
737.3  36452.29  34228.21  93.90
738.6  36538.42  34356.77  94.03
739.9  36706.85  34599.52  94.26
741.2  36841.35  34747.90  94.32
742.5  37078.82  35038.43  94.50
743.8  37494.19  35499.41  94.68
745.1  38118.44  36163.49  94.87
746.4  38876.11  36892.39  94.90
747.7  39639.96  37623.43  94.91
749.0  40400.48  38343.49  94.91
750.3  40850.46  38705.30  94.75
751.6  40764.46  38619.49  94.74
752.9  40356.61  38247.06  94.77
754.2  39863.99  37836.66  94.91
755.4  39350.05  37395.45  95.03
756.7  39155.03  37291.61  95.24
758.0  39142.09  37361.84  95.45
759.3  39351.46  37651.35  95.68
760.6  39645.76  38058.02  96.00
761.9  39928.94  38422.67  96.23
763.1  40078.15  38606.75  96.33
764.4  40287.45  38863.94  96.47
765.7  40433.25  39038.46  96.55
767.0  40515.07  39186.37  96.72
768.2  40595.52  39315.36  96.85
769.5  40644.33  39427.13  97.01
770.8  40787.04  39629.69  97.16
772.0  40799.41  39685.69  97.27
773.3  40833.29  39793.73  97.45
774.6  40907.98  39931.70  97.61
775.8  40955.53  40027.38  97.73
777.1  40964.33  40073.91  97.83
778.4  40867.87  40028.62  97.95
779.6  40816.98  40046.05  98.11
780.9  40688.00  40007.33  98.33
782.1  40484.72  39898.29  98.55
783.4  40464.32  39920.05  98.65
784.6  40463.12  39984.47  98.82
785.9  40670.74  40330.29  99.16
787.1  41171.80  40919.16  99.39
788.4  41528.97  41331.05  99.52
789.6  41482.13  41188.36  99.29
790.9  41134.16  40728.07  99.01
792.1  40655.28  40279.52  99.08
793.4  40180.32  39891.97  99.28
794.6  39846.60  39614.24  99.42
795.8  39587.54  39400.59  99.53
797.1  39290.10  39168.86  99.69
798.3  39054.26  39020.23  99.91
799.5  38943.25  38934.21  99.98
800.8  38778.22  38832.43  100.14
802.0  38618.88  38723.59  100.27
803.2  38465.20  38575.94  100.29
804.5  38332.71  38484.97  100.40
805.7  38219.65  38380.95  100.42
806.9  38073.35  38261.14  100.49
808.1  37984.05  38213.57  100.60
809.4  37906.28  38172.48  100.70
810.6  37824.15  38122.93  100.79
811.8  37796.29  38127.03  100.88
813.0  37827.58  38172.37  100.91
814.2  37840.50  38224.53  101.01
815.4  37955.24  38322.23  100.97
816.6  38027.91  38354.80  100.86
817.9  38102.35  38380.73  100.73
819.1  38072.96  38277.25  100.54
820.3  37949.69  38110.88  100.42
821.5  37894.61  38005.50  100.29
822.7  37866.54  37920.32  100.14
823.9  37906.28  37891.02  99.96
825.1  37943.15  37875.59  99.82
826.3  38020.73  37848.11  99.55
827.5  38108.05  37852.63  99.33
828.7  38176.32  37824.44  99.08
829.9  38262.68  37803.14  98.80
831.0  38386.63  37845.19  98.59
832.2  38533.16  37889.86  98.33
833.4  38634.36  37931.06  98.18
834.6  38746.88  37978.13  98.02
835.8  38872.58  38028.38  97.83
837.0  39026.76  38142.38  97.73
838.1  39200.00  38302.34  97.71
839.3  39334.99  38369.11  97.54
840.5  39499.16  38477.83  97.41
841.7  39675.29  38668.80  97.46
842.9  39834.34  38827.45  97.47
844.0  40002.80  38945.17  97.36
845.2  40188.33  39086.01  97.26
846.4  40315.24  39180.75  97.19
847.5  40575.08  39411.06  97.13
848.7  40794.29  39587.46  97.04
849.9  41043.27  39734.53  96.81
851.0  41176.72  39751.18  96.54
852.2  41283.01  39791.86  96.39
853.3  41336.03  39767.21  96.20
854.5  41385.60  39736.04  96.01
855.6  41408.01  39746.75  95.99
856.8  41491.09  39787.37  95.89
857.9  41535.42  39783.57  95.78
859.1  41657.80  39892.87  95.76
860.2  41711.76  39901.03  95.66
861.4  41789.90  39943.33  95.58
862.5  41857.52  39967.62  95.48
863.7  41978.22  40051.05  95.41
864.8  42001.40  40050.73  95.36
865.9  42003.19  40002.55  95.24
867.1  42077.89  40001.95  95.07
868.2  42118.25  40002.37  94.98
869.3  42153.63  40001.85  94.90
870.5  42092.46  39910.95  94.82
871.6  42122.53  39909.00  94.75
872.7  42223.14  39962.55  94.65
873.9  42262.83  39963.50  94.56
875.0  42247.20  39891.28  94.42
876.1  42225.11  39841.18  94.35
877.2  42279.84  39828.26  94.20
878.3  42302.12  39766.59  94.01
879.4  42284.06  39759.52  94.03
880.5  42343.92  39745.38  93.86
881.7  42326.05  39674.16  93.73
882.8  42351.34  39656.28  93.64
883.9  42430.09  39605.80  93.34
885.0  42357.32  39490.02  93.23
886.1  42357.47  39410.76  93.04
887.2  42241.92  39208.18  92.82
888.3  42147.85  39036.44  92.62
889.4  42045.32  38881.20  92.47
890.5  41945.29  38733.51  92.34
891.6  41864.40  38646.38  92.31
892.7  41844.69  38584.57  92.21
893.8  41881.85  38605.19  92.18
894.9  41879.31  38574.25  92.11
896.0  41812.69  38456.78  91.97
897.0  41850.92  38410.28  91.78
898.1  41821.61  38379.04  91.77
899.2  41852.54  38362.49  91.66
900.3  41747.94  38226.69  91.57
901.4  41622.41  38099.67  91.54
902.4  41658.53  38082.03  91.41
903.5  41604.82  37977.71  91.28
904.6  41550.72  37916.31  91.25
905.7  41565.54  37876.27  91.12
906.7  41536.49  37782.05  90.96
907.8  41558.34  37771.50  90.89
908.9  41493.73  37642.36  90.72
909.9  41451.58  37566.10  90.63
911.0  41358.23  37443.40  90.53
912.1  41297.17  37320.55  90.37
913.1  41189.72  37155.39  90.21
914.2  41099.85  36961.74  89.93
915.2  41068.89  36889.74  89.82
916.3  41034.15  36839.95  89.78
917.3  40975.74  36717.54  89.61
918.4  40862.80  36492.64  89.31
919.4  40836.29  36358.13  89.03
920.5  40782.84  36235.92  88.85
921.5  40833.45  36127.78  88.48
922.6  40729.18  35947.42  88.26
923.6  40739.49  35845.71  87.99
924.7  40774.75  35724.04  87.61
925.7  40746.72  35559.26  87.27
926.7  40808.40  35420.30  86.80
927.8  40839.01  35284.83  86.40
928.8  40966.59  35216.80  85.96
929.9  41048.46  35118.99  85.55
930.9  41217.18  35097.40  85.15
931.9  41378.61  35108.78  84.85
932.9  41679.25  35184.44  84.42
934.0  41702.58  35027.51  83.99
935.0  41757.18  34829.07  83.41
936.0  41670.71  34642.68  83.13
937.0  41632.50  34434.04  82.71
938.1  41580.55  34238.36  82.34
939.1  41508.45  34025.55  81.97
940.1  41591.64  33882.74  81.47
941.1  41779.29  33856.48  81.04
942.1  41991.60  33822.40  80.55
943.1  42156.63  33758.70  80.08
944.1  42391.18  33770.22  79.66
945.2  42445.20  33572.07  79.10
946.2  42493.04  33392.42  78.58
947.2  42572.63  33227.96  78.05
948.2  42750.54  33139.37  77.52
949.2  42846.38  32958.93  76.92
950.2  42880.60  32722.45  76.31
951.2  42968.52  32506.04  75.65
952.2  43001.40  32357.59  75.25
953.2  43164.71  32236.75  74.68
954.2  43310.48  32082.12  74.07
955.2  43368.34  31859.27  73.46
956.2  43301.73  31698.77  73.20
957.2  43392.87  31549.50  72.71
958.2  43492.10  31443.58  72.30
959.2  43506.45  31390.80  72.15
960.1  43588.22  31319.64  71.85
961.1  43692.83  31237.76  71.49
962.1  43658.44  31219.38  71.51
963.1  43782.00  31164.27  71.18
964.1  43817.42  31194.54  71.19
965.1  43908.74  31245.10  71.16
966.1  44007.38  31226.82  70.96
967.0  44141.86  31268.84  70.84
968.0  44131.86  31243.61  70.80
969.0  44255.20  31258.27  70.63
970.0  44255.36  31313.52  70.76
971.0  44316.83  31314.19  70.66
971.9  44400.90  31312.87  70.52
972.9  44577.14  31263.01  70.13
973.9  44494.78  31255.04  70.24
974.9  44573.29  31223.74  70.05
975.8  44702.44  31206.56  69.81
976.8  44666.28  31197.40  69.85
977.8  44950.93  31156.63  69.31
978.8  44877.90  31252.23  69.64
979.7  45104.10  31224.51  69.23
981.4  47578.80  31087.88  65.34
985.3  47203.20  31071.07  65.82
989.3  47137.31  31267.29  66.33
993.3  47133.16  31525.51  66.89
997.2  47029.21  31745.75  67.50
1001.2  46955.35  32006.35  68.16
1005.2  46914.32  32321.68  68.90
1009.1  47038.13  32770.40  69.67
1013.1  47236.75  33313.90  70.53
1017.1  47375.30  33828.49  71.41
1021.0  47429.61  34253.16  72.22
1025.0  47461.87  34649.20  73.00
1029.0  47354.18  34937.58  73.78
1032.9  47271.77  35249.07  74.57
1036.9  47308.70  35659.08  75.38
1040.9  47476.08  36155.21  76.15
1044.8  47747.63  36692.58  76.85
1048.8  47970.59  37167.47  77.48
1052.7  48104.60  37556.70  78.07
1056.7  48183.46  37834.84  78.52
1060.7  48250.82  38034.39  78.83
1064.6  48272.17  38168.48  79.07
1068.6  48190.54  38178.34  79.22
1072.5  48116.11  38142.11  79.27
1076.5  48076.67  38064.55  79.17
1080.4  48048.88  37944.79  78.97
1084.4  48150.59  37846.92  78.60
1088.3  48279.53  37715.76  78.12
1092.3  48252.92  37456.19  77.62
1096.2  48221.83  37153.57  77.05
1100.2  48245.69  36889.63  76.46
1104.1  48124.97  36510.29  75.87
1108.1  48059.38  36150.30  75.22
1112.0  47955.87  35733.95  74.51
1116.0  47754.46  35193.34  73.70
1119.9  47569.76  34585.78  72.71
1123.9  47623.80  34009.64  71.41
1127.8  47592.96  33153.28  69.66
1131.8  47556.42  32049.72  67.39
1135.7  47568.82  30777.21  64.70
1139.6  47554.30  29384.04  61.79
1143.6  47510.71  28062.81  59.07
1147.5  47481.98  26968.41  56.80
1151.4  47337.52  26066.06  55.06
1155.4  47322.86  25504.88  53.90
1159.3  47329.81  25164.75  53.17
1163.2  47159.49  24849.79  52.69
1167.2  47113.86  24683.24  52.39
1171.1  47117.13  24584.07  52.18
1175.0  47022.16  24456.21  52.01
1179.0  46962.63  24342.13  51.83
1182.9  47045.30  24290.43  51.63
1186.8  47019.62  24202.16  51.47
1190.7  46784.64  24015.42  51.33
1194.7  46508.35  23832.52  51.24
1198.6  46264.68  23713.31  51.26
1202.5  46100.54  23644.93  51.29
1206.4  45962.62  23615.62  51.38
1210.3  45829.98  23630.37  51.56
1214.2  45707.13  23654.59  51.75
1218.2  45554.16  23664.34  51.95
1222.1  45384.95  23709.91  52.24
1226.0  45257.55  23786.37  52.56
1229.9  45156.00  23852.12  52.82
1233.8  45033.17  23903.10  53.08
1237.7  44950.68  23968.96  53.32
1241.6  44841.64  24014.94  53.55
1245.5  44683.61  24015.94  53.75
1249.4  44538.65  24002.93  53.89
1253.3  44401.40  23992.49  54.04
1257.2  44324.52  24010.96  54.17
1261.1  44209.48  23992.85  54.27
1265.0  44086.55  23925.36  54.27
1268.9  43910.05  23797.40  54.20
1272.8  43969.80  23769.95  54.06
1276.7  44155.69  23786.87  53.87
1280.6  44249.88  23719.17  53.60
1284.5  44188.89  23525.50  53.24
1288.4  44167.03  23332.64  52.83
1292.3  44060.50  23056.92  52.33
1296.2  43934.23  22729.75  51.74
1300.1  43787.98  22362.19  51.07
1303.9  43564.57  21913.99  50.30
1307.8  43339.22  21430.95  49.45
1311.7  43109.06  20918.01  48.52
1315.6  42877.90  20380.50  47.53
1319.5  42633.84  19800.10  46.44
1323.3  42417.44  19215.77  45.30
1327.2  42218.70  18637.58  44.15
1331.1  42002.86  18044.26  42.96
1335.0  41739.72  17445.79  41.80
1338.8  41543.11  16919.81  40.73
1342.7  41389.31  16438.13  39.72
1346.5  41042.00  15890.65  38.72
1350.4  40741.74  15387.15  37.77
1354.3  40332.24  14864.38  36.85
1358.1  39895.31  14343.66  35.95
1362.0  39644.33  13910.38  35.09
1365.8  39567.12  13534.10  34.21
1369.7  39683.68  13176.69  33.20
1373.5  39615.26  12666.20  31.97
1377.4  39354.79  11956.53  30.38
1381.2  39167.92  11143.08  28.45
1385.1  39160.09  10338.92  26.40
1389.0  39060.88  9526.46  24.39
1392.8  38834.72  8717.23  22.45
1396.6  38680.88  7982.96  20.64
1400.5  38476.57  7343.06  19.08
1404.3  38299.58  6835.21  17.85
1408.2  38263.03  6441.40  16.83
1412.0  38218.70  6138.25  16.06
1415.8  38249.29  5921.35  15.48
1419.6  38208.11  5739.98  15.02
1423.5  38172.20  5608.04  14.69
1427.3  38125.77  5508.33  14.45
1431.1  38099.78  5438.95  14.28
1434.9  38010.73  5373.13  14.14
1438.8  37949.80  5330.68  14.05
1442.6  37913.52  5313.02  14.01
1446.4  37795.09  5281.53  13.97
1450.2  37700.99  5260.89  13.95
1454.0  37583.52  5246.28  13.96
1457.8  37547.69  5258.97  14.01
1461.6  37527.24  5294.03  14.11
1465.4  37404.28  5323.63  14.23
1469.2  37216.73  5363.69  14.41
1473.0  37080.95  5429.89  14.64
1476.8  37019.78  5526.43  14.93
1480.7  36949.43  5642.04  15.27
1484.4  36826.56  5760.04  15.64
1488.2  36723.96  5899.12  16.06
1492.0  36584.11  6045.81  16.53
1495.8  36452.33  6186.49  16.97
1499.6  36350.05  6299.92  17.33
1503.4  36216.75  6375.89  17.60
1507.2  36087.28  6433.54  17.83
1510.9  35929.91  6499.48  18.09
1514.7  35749.31  6584.37  18.42
1518.5  35615.65  6683.19  18.76
1522.3  35466.30  6779.29  19.11
1526.0  35355.47  6881.88  19.46
1529.8  35294.61  7006.02  19.85
1533.6  35159.29  7115.03  20.24
1537.3  35020.99  7219.01  20.61
1541.1  34889.16  7325.94  21.00
1544.8  34754.40  7431.20  21.38
1548.6  34607.98  7522.92  21.74
1552.4  34514.76  7610.33  22.05
1556.1  34455.77  7707.18  22.37
1559.9  34373.05  7797.26  22.68
1563.6  34243.93  7882.11  23.02
1567.3  34122.03  7981.80  23.39
1571.1  33904.82  8057.11  23.76
1574.8  33749.79  8142.85  24.13
1578.6  33637.37  8231.44  24.47
1582.3  33496.17  8291.42  24.75
1586.0  33359.51  8327.70  24.96
1589.8  33217.24  8360.05  25.17
1593.5  33051.52  8397.39  25.41
1597.2  32917.71  8445.92  25.66
1600.9  32767.31  8485.00  25.89
1604.7  32613.52  8515.43  26.11
1608.4  32493.03  8557.34  26.34
1612.1  32320.35  8585.92  26.57
1615.8  32161.00  8615.89  26.79
1619.5  32072.28  8662.34  27.01
1623.2  31915.49  8681.55  27.20
1626.9  31725.78  8691.75  27.40
1630.6  31537.44  8706.35  27.61
1634.3  31397.73  8718.50  27.77
1638.0  31241.74  8711.75  27.88
1641.7  31050.65  8694.44  28.00
1645.4  30870.63  8668.67  28.08
1649.1  30683.95  8631.13  28.13
1652.8  30504.58  8593.47  28.17
1656.4  30322.32  8547.61  28.19
1660.1  30158.02  8511.86  28.22
1663.8  29966.42  8465.77  28.25
1667.5  29809.99  8426.21  28.27
1671.1  29676.54  8387.02  28.26
1674.8  29472.79  8319.48  28.23
1678.5  29413.48  8284.67  28.17
1682.1  29419.35  8259.05  28.07
1685.8  29417.21  8227.65  27.97
1689.5  29310.65  8162.59  27.85
1693.1  29167.59  8086.44  27.72
1696.8  29020.13  8007.71  27.59
1700.4  28874.60  7917.77  27.42
1704.0  28754.23  7827.42  27.22
1707.7  28493.62  7694.93  27.01
1711.3  28200.13  7550.10  26.77
1715.0  27991.44  7430.43  26.55
1718.6  27822.35  7321.38  26.31
1722.2  27677.55  7215.17  26.07
1725.9  27527.50  7113.53  25.84
1729.5  27386.37  7024.49  25.65
1733.1  27262.24  6952.30  25.50
1736.7  27144.69  6893.93  25.40
1740.3  26982.07  6816.17  25.26
1744.0  26899.89  6747.14  25.08
1747.5  26760.07  6646.19  24.84
1751.2  26551.35  6521.97  24.56
1754.8  26397.18  6417.24  24.31
1758.4  26262.14  6319.98  24.06
1762.0  26085.49  6216.18  23.83
1765.5  25956.49  6142.92  23.67
1769.1  25915.20  6102.40  23.55
1772.7  25841.75  6054.11  23.43
1776.3  25724.16  5996.62  23.31
1779.9  25608.69  5940.38  23.20
1783.5  25553.92  5906.53  23.11
1787.0  25434.82  5860.16  23.04
1790.6  25293.30  5803.76  22.95
1794.2  25193.03  5772.45  22.91
1797.8  25095.48  5747.84  22.90
1801.3  25012.46  5724.18  22.89
1804.9  24871.88  5693.63  22.89
1808.4  24792.34  5672.52  22.88
1812.0  24660.35  5642.68  22.88
1815.5  24519.60  5604.48  22.86
1819.1  24324.68  5548.53  22.81
1822.6  24164.48  5508.41  22.80
1826.2  24042.90  5473.68  22.77
1829.7  23859.90  5418.61  22.71
1833.2  23612.46  5347.71  22.65
1836.8  23400.20  5273.30  22.54
1840.3  23257.80  5225.34  22.47
1843.8  23131.92  5196.45  22.46
1847.3  23013.03  5170.66  22.47
1850.8  22865.47  5142.14  22.49
1854.3  22692.74  5083.22  22.40
1857.8  22594.00  4981.60  22.05
1861.3  22615.25  4809.06  21.26
1864.8  22605.64  4556.38  20.16
1868.3  22468.36  4211.13  18.74
1871.8  22341.12  3855.36  17.26
1875.3  22323.21  3552.95  15.92
1878.8  22320.32  3294.69  14.76
1882.3  22237.89  3054.87  13.74
1885.8  22045.10  2810.85  12.75
1889.3  21861.76  2602.39  11.90
1892.7  21710.01  2464.37  11.35
1896.2  21503.16  2366.73  11.01
1899.7  21232.37  2326.38  10.96
1901.7  20074.51  1369.65  6.82
1904.5  20223.67  1341.90  6.64
1907.2  20168.50  1315.75  6.52
1910.0  20030.00  1279.71  6.39
1912.7  20048.69  1251.71  6.24
1915.5  19979.54  1225.59  6.13
1918.2  19877.64  1221.41  6.14
1921.0  19705.09  1212.59  6.15
1923.7  19733.20  1199.49  6.08
1926.5  19715.86  1196.28  6.07
1929.2  19701.76  1183.26  6.01
1932.0  19674.16  1187.11  6.03
1934.7  19635.47  1192.30  6.07
1937.4  19518.79  1186.90  6.08
1940.2  19475.71  1195.53  6.14
1942.9  19573.26  1201.76  6.14
1945.6  19572.62  1205.99  6.16
1948.3  19494.00  1219.38  6.26
1951.1  19465.67  1235.10  6.35
1953.8  19476.00  1255.00  6.44
1956.5  19368.67  1269.88  6.56
1959.2  19423.04  1280.72  6.59
1961.9  19438.54  1303.25  6.70
1964.6  19331.55  1317.93  6.82
1967.3  19375.30  1338.96  6.91
1970.0  19228.16  1342.85  6.98
1972.8  19159.08  1364.94  7.12
1975.5  19219.42  1396.99  7.27
1978.2  19120.16  1404.52  7.35
1980.9  19002.89  1418.64  7.47
1983.5  18950.70  1418.30  7.48
1986.2  18944.10  1432.69  7.56
1988.9  18909.18  1473.43  7.79
1991.6  18787.78  1482.13  7.89
1994.3  18678.85  1496.15  8.01
1997.0  18669.58  1522.40  8.15
1999.7  18631.37  1530.60  8.22
2002.3  18617.79  1546.69  8.31
2005.0  18540.12  1570.66  8.47
2007.7  18469.93  1588.14  8.60
2010.4  18400.48  1598.80  8.69
2013.0  18316.11  1620.70  8.85
2015.7  18226.45  1626.38  8.92
2018.4  18129.14  1626.36  8.97
2021.0  18062.50  1652.78  9.15
2023.7  17946.51  1673.39  9.32
2026.4  17902.73  1688.12  9.43
2029.0  17806.29  1698.25  9.54
2031.7  17677.40  1697.51  9.60
2034.3  17722.47  1703.14  9.61
2037.0  17610.64  1726.54  9.80
2039.6  17527.07  1741.45  9.94
2042.3  17481.88  1745.85  9.99
2044.9  17393.81  1769.96  10.18
2047.5  17348.93  1783.05  10.28
2050.2  17253.60  1773.33  10.28
2052.8  17214.40  1788.27  10.39
2055.4  17090.17  1796.80  10.51
2058.1  16973.60  1792.00  10.56
2060.7  16918.14  1815.82  10.73
2063.3  16842.61  1826.19  10.84
2065.9  16794.67  1825.75  10.87
2068.6  16710.92  1832.26  10.96
2071.2  16664.67  1848.84  11.09
2073.8  16591.32  1865.56  11.24
2076.4  16536.88  1880.47  11.37
2079.0  16525.61  1887.38  11.42
2081.6  16519.89  1891.50  11.45
2084.2  16487.00  1910.27  11.59
2086.8  16353.42  1916.67  11.72
2089.4  16268.28  1916.64  11.78
2092.1  16209.50  1933.28  11.93
2094.7  16113.80  1937.01  12.02
2097.2  16087.67  1947.44  12.11
2099.8  16089.36  1968.00  12.23
2102.4  15953.94  1951.48  12.23
2105.0  15826.05  1965.55  12.42
2107.6  15774.07  1983.39  12.57
2110.2  15742.83  1972.12  12.53
2112.8  15734.02  1986.20  12.62
2115.3  15735.22  2019.71  12.84
2117.9  15738.64  2035.04  12.93
2120.5  15682.70  2029.82  12.94
2123.1  15604.88  2030.93  13.01
2125.6  15567.02  2047.88  13.16
2128.2  15487.92  2060.37  13.30
2130.8  15394.28  2056.28  13.36
2133.3  15347.20  2046.49  13.33
2135.9  15264.31  2041.52  13.37
2138.4  15119.35  2050.88  13.56
2141.0  15032.51  2039.20  13.57
2143.6  14998.41  2044.35  13.63
2146.1  14847.40  2047.04  13.79
2148.7  14686.27  2017.49  13.74
2151.2  14704.80  2038.67  13.86
2153.8  14713.72  2055.43  13.97
2156.3  14589.47  2033.86  13.94
2158.8  14533.35  2027.96  13.95
2161.4  14517.59  2035.33  14.02
2163.9  14426.20  2033.37  14.09
2166.4  14354.62  2019.40  14.07
2169.0  14310.27  2028.27  14.17
2171.5  14227.48  2029.26  14.26
2174.0  14143.15  2015.07  14.25
2176.5  14124.76  2019.25  14.30
2179.1  14082.55  2017.82  14.33
2181.6  13967.33  2001.42  14.33
2184.1  13937.00  1993.79  14.31
2186.6  13993.83  1986.57  14.20
2189.1  13896.09  1976.29  14.22
2191.6  13840.87  1998.11  14.44
2194.1  13877.92  2020.68  14.56
2196.6  13844.81  2002.90  14.47
2199.2  13897.52  1997.65  14.37
2201.7  13871.80  1999.77  14.42
2204.1  13802.39  1996.21  14.46
2206.6  13786.08  2006.74  14.56
2209.1  13743.34  2002.27  14.57
2211.6  13738.26  1993.42  14.51
2214.1  13693.60  1999.68  14.60
2216.6  13643.61  2000.46  14.66
2219.1  13655.01  1989.06  14.57
2221.6  13597.41  1970.59  14.49
2224.0  13563.60  1960.88  14.46
2226.5  13534.39  1926.60  14.23
2229.0  13551.73  1902.06  14.04
2231.5  13416.49  1899.68  14.16
2233.9  13376.81  1883.12  14.08
2236.4  13409.64  1865.67  13.91
2238.9  13341.63  1857.42  13.92
2241.3  13300.17  1844.87  13.87
2243.8  13261.31  1829.32  13.79
2246.2  13153.53  1803.94  13.71
2248.7  13089.53  1772.78  13.54
2251.2  13067.33  1766.65  13.52
2253.6  13017.60  1760.00  13.52
2256.1  12979.20  1724.16  13.28
2258.5  12980.99  1703.14  13.12
2260.9  12912.45  1670.78  12.94
2263.4  12850.74  1640.25  12.76
2265.8  12840.17  1632.27  12.71
2268.3  12768.77  1621.43  12.70
2270.7  12812.36  1603.14  12.51
2273.1  12778.22  1586.42  12.42
2275.6  12710.40  1573.12  12.38
2278.0  12729.12  1552.71  12.20
2280.4  12680.26  1549.60  12.22
2282.8  12544.20  1522.86  12.14
2285.3  12570.98  1504.79  11.97
2287.7  12679.54  1513.84  11.94
2290.1  12579.51  1470.64  11.69
2292.5  12520.09  1447.12  11.56
2294.9  12538.64  1448.94  11.56
2297.3  12458.25  1414.57  11.35
2299.7  12334.59  1380.60  11.19
2302.1  12311.40  1364.44  11.08
2304.5  12214.72  1317.12  10.78
2306.9  12089.28  1304.05  10.79
2309.3  11994.02  1310.03  10.92
2311.7  11939.85  1274.32  10.67
2314.1  11791.37  1249.76  10.60
2316.5  11721.50  1260.80  10.76
2318.9  11765.88  1263.96  10.74
2321.3  11730.50  1269.05  10.82
2323.7  11744.39  1280.53  10.90
2326.1  11719.24  1262.73  10.77
2328.4  11761.55  1244.91  10.58
2330.8  11807.83  1259.72  10.67
2333.2  11712.54  1235.50  10.55
2335.6  11662.03  1190.14  10.21
2337.9  11681.16  1203.31  10.30
2340.3  11629.38  1200.72  10.32
2342.7  11548.22  1184.87  10.26
2345.0  11508.47  1174.91  10.21
2347.4  11492.00  1144.67  9.96
2349.7  11315.65  1099.24  9.71
2352.1  11286.89  1099.24  9.74
2354.4  11296.02  1107.54  9.80
2356.8  11214.70  1099.31  9.80
2359.2  11154.00  1080.44  9.69
2361.5  11109.05  1057.38  9.52
2363.8  11141.66  1062.79  9.54
2366.2  11165.73  1060.67  9.50
2368.5  11089.40  1039.82  9.38
2370.9  11067.03  1037.81  9.38
2373.2  11030.32  1047.72  9.50
2375.5  10914.30  1027.18  9.41
2377.9  10876.18  1005.87  9.25
2380.2  10876.88  995.75  9.15
2382.5  10821.23  972.61  8.99
2384.8  10769.44  957.39  8.89
2387.2  10736.28  973.61  9.07
2389.5  10704.02  971.09  9.07
2391.8  10661.73  936.41  8.78
2394.1  10613.91  938.87  8.85
2396.4  10610.47  938.64  8.85
2398.7  10654.34  915.87  8.60
2401.0  10513.07  909.88  8.65
2403.3  10428.12  911.34  8.74
2405.6  10456.51  904.70  8.65
2407.9  10375.71  890.11  8.58
2410.2  10317.44  884.02  8.57
2412.5  10224.31  857.11  8.38
2414.8  10187.84  845.57  8.30
2417.1  10204.62  836.19  8.19
2419.4  10195.97  823.18  8.07
2421.7  10103.31  844.57  8.36
2424.0  10048.90  824.20  8.20
2426.2  10074.05  795.37  7.90
2428.5  10032.46  805.84  8.03
2430.8  10006.20  788.43  7.88
2433.1  9945.94  781.81  7.86
2435.4  9886.37  800.09  8.09
2437.6  9830.42  777.71  7.91
2439.9  9708.34  758.03  7.81
2442.2  9709.99  741.38  7.64
2444.4  9752.18  717.91  7.36
2446.7  9688.56  698.85  7.21
2448.9  9658.24  712.58  7.38
2451.2  9631.36  707.25  7.34
2453.4  9564.32  679.00  7.10
2455.7  9566.46  697.37  7.29
2457.9  9468.86  704.11  7.44
2460.2  9395.46  696.65  7.41
2462.4  9422.40  690.56  7.33
2464.7  9348.95  649.76  6.95
2466.9  9251.22  648.42  7.01
2469.2  9249.34  656.81  7.10
2471.4  9151.61  608.36  6.65
2473.6  9078.42  627.10  6.91
2475.9  9042.40  638.95  7.07
2478.1  8956.32  605.74  6.76
2480.3  8952.70  584.78  6.53
2482.5  8971.16  579.02  6.45
2484.8  8832.66  567.97  6.43
2487.0  8762.09  555.50  6.34
2489.2  8850.00  595.53  6.73
2491.4  8753.22  601.99  6.88
2493.6  8669.20  566.97  6.54
2495.8  8662.66  564.84  6.52
2498.0  8674.13  562.06  6.48
2500.2  8694.60  527.97  6.07
2502.4  8942.16  550.56  6.16
2504.6  9089.52  557.14  6.13
2506.8  9176.65  535.79  5.84
