/*** Spectra Vista SIG Data ***/
name= PYR650.sig
comm= Averaged Ref/Tar of files: PYR_650[1],PYR_650[2],PYR_650[3]
data=
346.4  630.63  394.94  62.63
347.9  683.98  422.52  61.77
349.5  730.08  458.64  62.82
351.1  795.60  495.04  62.22
352.6  847.55  541.84  63.93
354.2  906.48  575.96  63.54
355.7  986.68  629.73  63.82
357.3  1040.25  662.30  63.67
358.8  1065.98  692.01  64.92
360.4  1143.19  745.71  65.23
361.9  1187.53  776.60  65.40
363.5  1239.58  812.54  65.55
365.1  1293.38  856.47  66.22
366.6  1353.38  906.86  67.01
368.2  1426.94  955.77  66.98
369.7  1498.64  1004.53  67.03
371.3  1600.16  1078.85  67.42
372.8  1673.28  1140.97  68.19
374.4  1748.85  1193.72  68.26
375.9  1797.33  1234.63  68.69
377.4  1870.19  1274.98  68.17
379.0  1934.96  1327.10  68.59
380.5  1988.07  1364.36  68.63
382.1  2033.04  1405.60  69.14
383.6  2120.58  1457.19  68.72
385.2  2208.25  1520.75  68.87
386.7  2301.38  1599.23  69.49
388.3  2426.73  1676.70  69.09
389.8  2519.91  1748.57  69.39
391.3  2626.26  1822.32  69.39
392.9  2697.06  1882.44  69.80
394.4  2771.65  1929.86  69.63
395.9  2873.10  2005.41  69.80
397.5  3029.74  2112.42  69.72
399.0  3151.80  2203.17  69.90
400.6  3234.69  2271.55  70.22
402.1  3274.02  2310.82  70.58
403.6  3322.94  2350.35  70.73
405.1  3409.22  2406.87  70.60
406.7  3528.00  2498.35  70.81
408.2  3644.19  2586.13  70.97
409.7  3754.24  2663.36  70.94
411.3  3867.08  2750.94  71.14
412.8  3976.86  2833.73  71.26
414.3  4099.56  2923.95  71.32
415.8  4220.00  3017.50  71.50
417.4  4361.72  3116.96  71.46
418.9  4457.86  3197.08  71.72
420.4  4558.78  3270.16  71.73
421.9  4636.72  3335.57  71.94
423.5  4707.36  3391.98  72.06
425.0  4796.17  3446.92  71.87
426.5  4895.55  3524.57  72.00
428.0  5034.78  3623.35  71.97
429.5  5188.33  3732.75  71.95
431.1  5363.82  3853.23  71.84
432.6  5552.18  3988.55  71.84
434.1  5732.65  4119.50  71.86
435.6  5890.14  4228.62  71.79
437.1  6052.80  4342.65  71.75
438.6  6197.61  4441.56  71.67
440.1  6347.97  4548.52  71.65
441.6  6494.11  4651.14  71.62
443.1  6656.18  4758.08  71.48
444.7  6793.83  4862.82  71.58
446.2  6914.93  4937.63  71.41
447.7  7037.77  5020.50  71.34
449.2  7173.36  5119.92  71.37
450.7  7292.48  5211.09  71.46
452.2  7429.67  5305.50  71.41
453.7  7576.65  5409.32  71.39
455.2  7765.17  5536.38  71.30
456.7  7990.40  5695.36  71.28
458.2  8239.46  5871.60  71.26
459.7  8510.25  6053.83  71.14
461.2  8764.99  6232.22  71.10
462.7  8985.80  6387.32  71.08
464.2  9215.88  6542.86  71.00
465.7  9451.34  6705.81  70.95
467.2  9653.88  6847.87  70.93
468.7  9860.00  6982.67  70.82
470.2  10000.52  7064.51  70.64
471.7  10219.63  7191.50  70.37
473.2  10551.31  7435.95  70.47
474.6  10836.41  7659.98  70.69
476.1  10924.36  7744.36  70.89
477.6  10960.04  7776.49  70.95
479.1  11023.85  7802.42  70.78
480.6  11109.78  7843.94  70.60
482.1  11255.33  7944.77  70.59
483.6  11435.12  8065.95  70.54
485.1  11655.27  8218.07  70.51
486.6  11911.43  8404.45  70.56
488.0  12195.63  8590.84  70.44
489.5  12483.95  8789.91  70.41
491.0  12777.45  8993.45  70.39
492.5  13078.26  9202.68  70.37
494.0  13380.84  9414.33  70.36
495.4  13642.20  9594.75  70.33
496.9  13904.42  9785.09  70.37
498.4  14171.30  9967.70  70.34
499.9  14439.02  10152.14  70.31
501.4  14680.69  10329.82  70.36
502.8  14919.13  10494.97  70.35
504.3  15134.40  10648.20  70.36
505.8  15347.35  10809.06  70.43
507.2  15489.44  10911.95  70.45
508.7  15598.86  10994.80  70.48
510.2  15690.64  11065.96  70.53
511.6  15752.95  11120.88  70.60
513.1  15872.56  11216.26  70.66
514.6  16004.87  11325.01  70.76
516.0  16136.97  11418.70  70.76
517.5  16322.55  11567.36  70.87
519.0  16545.71  11735.44  70.93
520.5  16764.08  11904.76  71.01
521.9  17039.29  12114.71  71.10
523.4  17355.20  12351.68  71.17
524.8  17660.07  12591.77  71.30
526.3  18013.36  12858.75  71.38
527.8  18358.47  13131.98  71.53
529.2  18674.36  13375.69  71.63
530.7  19031.03  13648.02  71.71
532.1  19344.85  13892.40  71.81
533.6  19707.77  14163.42  71.87
535.0  20079.68  14451.94  71.97
536.5  20419.92  14714.74  72.06
538.0  20792.00  14981.89  72.06
539.4  21127.02  15239.01  72.13
540.9  21551.03  15565.19  72.22
542.3  21923.06  15867.58  72.38
543.8  22174.34  16090.23  72.56
545.2  22231.45  16157.28  72.68
546.6  22222.15  16158.23  72.71
548.1  22214.03  16166.07  72.77
549.5  22226.58  16173.41  72.77
551.0  22212.49  16173.02  72.81
552.4  22245.44  16211.75  72.88
553.9  22258.65  16229.33  72.91
555.3  22290.26  16270.61  72.99
556.8  22401.11  16364.90  73.05
558.2  22512.94  16464.38  73.13
559.6  22672.30  16590.55  73.18
561.1  22889.75  16768.92  73.26
562.5  23127.28  16961.40  73.34
564.0  23454.83  17219.97  73.42
565.4  23755.76  17458.94  73.49
566.8  24132.47  17754.08  73.57
568.3  24488.54  18039.20  73.66
569.7  24876.90  18343.29  73.74
571.1  25245.29  18628.98  73.79
572.6  25607.34  18925.92  73.91
574.0  25974.30  19208.75  73.95
575.4  26319.94  19480.50  74.01
576.9  26649.32  19733.75  74.05
578.3  26932.26  19965.78  74.13
579.7  27212.85  20180.55  74.16
581.1  27427.97  20359.53  74.23
582.6  27669.82  20543.88  74.25
584.0  27882.24  20710.99  74.28
585.4  28177.77  20954.64  74.37
586.8  28576.31  21274.08  74.45
588.3  29013.66  21644.22  74.60
589.7  29383.38  21954.66  74.72
591.1  29621.38  22148.16  74.77
592.5  29726.99  22233.59  74.79
594.0  29770.20  22265.12  74.79
595.4  29770.08  22258.53  74.77
596.8  29766.17  22244.37  74.73
598.2  29744.67  22228.85  74.73
599.6  29714.85  22209.03  74.74
601.0  29771.81  22253.17  74.75
602.4  29816.58  22287.22  74.75
603.9  29909.17  22375.31  74.81
605.3  30024.63  22464.61  74.82
606.7  30119.40  22533.00  74.81
608.1  30316.50  22676.77  74.80
609.5  30539.01  22845.89  74.81
610.9  30814.99  23056.98  74.82
612.3  31075.20  23247.75  74.81
613.7  31428.96  23501.20  74.78
615.1  31662.90  23651.46  74.70
616.5  31902.59  23823.55  74.68
617.9  32288.77  24132.05  74.74
619.3  32666.57  24424.36  74.77
620.7  33128.50  24778.41  74.79
622.1  33560.89  25032.26  74.59
623.5  34032.77  25351.64  74.49
624.9  34565.21  25807.69  74.66
626.3  34922.45  26109.27  74.76
627.7  34564.35  25824.69  74.71
629.1  34256.15  25570.58  74.65
630.5  34133.81  25504.49  74.72
631.9  34173.45  25551.16  74.77
633.3  34221.59  25536.58  74.62
634.7  34406.41  25654.30  74.56
636.1  34488.04  25771.35  74.73
637.5  34613.12  25817.47  74.59
638.9  34796.83  25825.03  74.22
640.2  34954.01  25911.69  74.13
641.6  35055.54  25945.14  74.01
643.0  35067.41  25962.80  74.04
644.4  35115.49  26053.61  74.19
645.8  35070.53  26142.81  74.54
647.2  35256.78  26544.27  75.29
648.5  35391.08  27000.16  76.29
649.9  35282.13  27142.25  76.93
651.3  35212.95  27351.30  77.67
652.7  35080.35  27642.85  78.80
654.1  34845.90  27359.30  78.52
655.5  34548.82  26907.11  77.88
656.8  34274.04  26472.88  77.24
658.2  34439.22  26418.35  76.71
659.6  34825.18  26594.30  76.37
660.9  35139.54  26790.06  76.24
662.3  35443.63  26983.34  76.13
663.7  35746.20  27144.60  75.94
665.0  36012.67  27307.82  75.83
666.4  36257.27  27503.74  75.86
667.8  36589.28  27746.61  75.83
669.1  36867.26  27919.71  75.73
670.5  37195.97  28167.44  75.73
671.9  37380.96  28321.32  75.76
673.2  37662.77  28531.84  75.76
674.6  37922.97  28724.11  75.74
676.0  38225.19  28971.48  75.79
677.3  38533.34  29211.98  75.81
678.7  38864.13  29453.21  75.79
680.0  39305.58  29789.68  75.79
681.4  39779.73  30140.26  75.77
682.8  40233.38  30466.80  75.73
684.1  40676.22  30825.60  75.78
685.5  41092.36  31155.62  75.82
686.8  41490.36  31466.68  75.84
688.2  41836.80  31707.51  75.79
689.5  41943.86  31799.32  75.81
690.9  42017.36  31873.63  75.86
692.2  42092.85  31898.80  75.78
693.6  42157.83  31959.37  75.81
694.9  42109.57  31936.28  75.84
696.2  42121.91  31952.18  75.86
697.6  42142.24  31956.10  75.83
698.9  42160.80  31979.20  75.85
700.3  42212.70  32036.44  75.89
701.6  42275.21  32084.98  75.90
703.0  42340.09  32122.36  75.87
704.3  42340.84  32083.68  75.77
705.6  42307.56  32070.12  75.80
707.0  42304.76  32048.12  75.76
708.3  42205.58  31952.20  75.71
709.6  42077.70  31852.19  75.70
711.0  41902.11  31719.68  75.70
712.3  41730.30  31587.03  75.69
713.6  41662.74  31522.68  75.66
714.9  41546.10  31465.70  75.74
716.3  41517.29  31423.52  75.69
717.6  41513.92  31429.42  75.71
718.9  41427.26  31356.86  75.69
720.2  41191.85  31184.60  75.71
721.6  41046.72  31051.15  75.65
722.9  40841.06  30898.47  75.66
724.2  40588.46  30689.12  75.61
725.5  40381.61  30561.49  75.68
726.8  40196.01  30421.05  75.68
728.1  40102.16  30348.22  75.68
729.5  40009.55  30272.14  75.66
730.8  39945.60  30239.34  75.70
732.1  39850.55  30190.30  75.76
733.4  39793.17  30158.49  75.79
734.7  39729.39  30118.19  75.81
736.0  39732.49  30147.37  75.88
737.3  39673.91  30127.96  75.94
738.6  39788.18  30222.41  75.96
739.9  39986.32  30386.66  75.99
741.2  40139.19  30499.56  75.98
742.5  40421.44  30732.39  76.03
743.8  40915.88  31120.51  76.06
745.1  41627.68  31674.77  76.09
746.4  42484.72  32316.07  76.07
747.7  43357.88  33013.19  76.14
749.0  44203.37  33667.65  76.17
750.3  44693.01  33992.56  76.06
751.6  44609.70  33934.30  76.07
752.9  44168.69  33629.94  76.14
754.2  43669.08  33245.49  76.13
755.4  43127.05  32859.90  76.19
756.7  42940.36  32764.09  76.30
758.0  42963.66  32808.37  76.36
759.3  43246.58  33028.62  76.37
760.6  43631.28  33349.21  76.43
761.9  43987.93  33670.04  76.54
763.1  44205.00  33817.88  76.50
764.4  44447.50  34046.85  76.60
765.7  44632.25  34204.08  76.64
767.0  44781.90  34290.96  76.57
768.2  44909.76  34426.56  76.66
769.5  44994.81  34537.26  76.76
770.8  45181.96  34663.64  76.72
772.0  45202.30  34697.28  76.76
773.3  45281.34  34793.14  76.84
774.6  45399.45  34886.30  76.84
775.8  45492.85  34920.71  76.76
777.1  45515.93  34952.58  76.79
778.4  45431.52  34902.90  76.83
779.6  45395.43  34869.58  76.81
780.9  45316.00  34810.67  76.82
782.1  45111.08  34692.27  76.90
783.4  45111.04  34661.12  76.84
784.6  45106.92  34670.85  76.86
785.9  45393.88  34915.85  76.92
787.1  45996.98  35376.86  76.91
788.4  46441.69  35704.67  76.88
789.6  46399.50  35576.62  76.67
790.9  45932.90  35169.24  76.57
792.1  45403.52  34779.76  76.60
793.4  44896.14  34405.36  76.63
794.6  44551.89  34128.66  76.60
795.8  44231.81  33871.04  76.58
797.1  43906.28  33626.25  76.59
798.3  43659.83  33467.09  76.65
799.5  43520.02  33350.42  76.63
800.8  43336.38  33212.66  76.64
802.0  43170.52  33084.89  76.64
803.2  42985.20  32934.23  76.62
804.5  42855.21  32816.77  76.58
805.7  42692.40  32699.18  76.59
806.9  42512.38  32566.43  76.60
808.1  42409.86  32487.65  76.60
809.4  42316.73  32411.36  76.59
810.6  42192.15  32324.72  76.61
811.8  42172.17  32309.29  76.61
813.0  42163.23  32304.72  76.62
814.2  42178.96  32335.18  76.66
815.4  42279.13  32411.18  76.66
816.6  42301.14  32431.35  76.67
817.9  42349.13  32457.38  76.64
819.1  42261.23  32376.61  76.61
820.3  42104.76  32254.65  76.61
821.5  41970.20  32182.90  76.68
822.7  41937.17  32124.02  76.60
823.9  41911.59  32137.11  76.68
825.1  41906.00  32135.53  76.68
826.3  41927.28  32144.25  76.67
827.5  41996.16  32202.36  76.68
828.7  42070.56  32236.16  76.62
829.9  42094.44  32268.13  76.66
831.0  42223.46  32350.33  76.62
832.2  42314.37  32437.63  76.66
833.4  42402.89  32500.81  76.65
834.6  42482.81  32585.94  76.70
835.8  42572.25  32648.18  76.69
837.0  42673.89  32738.42  76.72
838.1  42851.66  32864.99  76.69
839.3  42953.40  32947.17  76.70
840.5  43102.99  33058.94  76.70
841.7  43251.71  33185.12  76.73
842.9  43400.31  33338.16  76.82
844.0  43549.44  33457.67  76.83
845.2  43705.60  33588.42  76.85
846.4  43839.60  33673.04  76.81
847.5  44086.39  33869.35  76.82
848.7  44310.84  34010.22  76.75
849.9  44519.86  34130.18  76.66
851.0  44600.35  34170.31  76.61
852.2  44693.32  34215.01  76.56
853.3  44699.49  34193.15  76.50
854.5  44750.58  34204.59  76.43
855.6  44778.78  34200.15  76.38
856.8  44851.95  34226.45  76.31
857.9  44871.50  34262.28  76.36
859.1  45012.00  34341.80  76.29
860.2  45071.56  34326.48  76.16
861.4  45164.68  34378.13  76.12
862.5  45221.87  34403.41  76.08
863.7  45380.27  34455.27  75.93
864.8  45412.85  34458.08  75.88
865.9  45403.93  34423.50  75.82
867.1  45474.25  34433.79  75.72
868.2  45524.97  34472.81  75.72
869.3  45589.41  34458.97  75.59
870.5  45539.97  34398.76  75.54
871.6  45562.59  34475.55  75.67
872.7  45700.60  34583.05  75.67
873.9  45747.35  34605.87  75.65
875.0  45745.04  34619.23  75.68
876.1  45783.66  34645.85  75.67
877.2  45820.13  34669.26  75.66
878.3  45822.65  34706.16  75.74
879.4  45871.99  34748.31  75.75
880.5  45962.28  34776.00  75.66
881.7  45908.85  34763.30  75.72
882.8  46012.72  34804.60  75.64
883.9  46073.21  34778.95  75.49
885.0  46039.40  34726.97  75.43
886.1  46025.94  34674.55  75.34
887.2  45905.76  34507.15  75.17
888.3  45807.80  34429.29  75.16
889.4  45707.30  34289.47  75.02
890.5  45592.32  34200.99  75.01
891.6  45545.58  34168.21  75.02
892.7  45554.16  34142.25  74.95
893.8  45579.45  34150.52  74.93
894.9  45613.48  34152.29  74.87
896.0  45529.58  34097.47  74.89
897.0  45627.02  34101.78  74.74
898.1  45583.05  34094.41  74.80
899.2  45607.22  34100.34  74.77
900.3  45541.50  34041.88  74.75
901.4  45412.27  33951.57  74.76
902.4  45437.06  33987.83  74.80
903.5  45388.81  33925.93  74.75
904.6  45388.82  33928.63  74.75
905.7  45374.76  33927.92  74.77
906.7  45323.04  33915.20  74.83
907.8  45383.91  33923.33  74.75
908.9  45302.99  33839.58  74.70
909.9  45307.76  33827.06  74.66
911.0  45202.77  33799.91  74.77
912.1  45152.49  33740.61  74.73
913.1  45072.56  33644.69  74.65
914.2  44921.94  33578.12  74.75
915.2  44915.04  33593.04  74.79
916.3  44853.15  33573.70  74.85
917.3  44875.31  33560.51  74.79
918.4  44790.35  33438.45  74.66
919.4  44699.60  33454.67  74.84
920.5  44708.24  33410.66  74.73
921.5  44702.98  33407.29  74.73
922.6  44636.74  33359.94  74.74
923.6  44687.86  33396.17  74.73
924.7  44720.00  33396.67  74.68
925.7  44710.62  33405.36  74.71
926.7  44757.60  33410.96  74.65
927.8  44773.30  33424.82  74.65
928.8  44894.28  33506.59  74.63
929.9  45005.21  33609.77  74.68
930.9  45213.30  33746.33  74.64
931.9  45414.99  33897.86  74.64
932.9  45762.26  34153.02  74.63
934.0  45803.71  34164.33  74.59
935.0  45810.36  34208.52  74.67
936.0  45840.15  34188.62  74.58
937.0  45795.75  34158.48  74.59
938.1  45737.41  34150.76  74.67
939.1  45690.54  34149.73  74.74
940.1  45792.08  34226.71  74.74
941.1  45974.44  34414.20  74.86
942.1  46240.75  34634.74  74.90
943.1  46430.63  34762.73  74.87
944.1  46685.58  34972.40  74.91
945.2  46780.86  35010.78  74.84
946.2  46886.15  35074.46  74.81
947.2  46973.00  35171.80  74.88
948.2  47156.13  35317.24  74.89
949.2  47321.63  35410.65  74.83
950.2  47306.35  35452.83  74.94
951.2  47423.88  35581.00  75.03
952.2  47533.98  35645.64  74.99
953.2  47748.84  35800.54  74.98
954.2  47923.43  35913.68  74.94
955.2  47900.28  35902.16  74.95
956.2  47872.99  35959.54  75.11
957.2  47942.90  35995.76  75.08
958.2  48058.20  36077.63  75.07
959.2  48218.40  36158.25  74.99
960.1  48234.68  36207.21  75.06
961.1  48358.04  36341.06  75.15
962.1  48485.63  36343.44  74.96
963.1  48452.08  36448.52  75.23
964.1  48561.50  36489.61  75.14
965.1  48761.92  36625.79  75.11
966.1  48787.80  36689.21  75.20
967.0  48997.06  36811.86  75.13
968.0  48996.14  36849.31  75.21
969.0  49091.60  36907.87  75.18
970.0  49111.31  36971.44  75.28
971.0  49170.03  37093.98  75.44
971.9  49289.72  37126.71  75.32
972.9  49420.88  37192.69  75.26
973.9  49398.70  37262.99  75.43
974.9  49421.14  37202.76  75.28
975.8  49584.23  37256.76  75.14
976.8  49645.86  37266.89  75.07
977.8  49761.42  37379.47  75.12
978.8  49883.25  37477.70  75.13
979.7  50017.88  37513.41  75.00
980.7  50024.37  37670.71  75.30
981.7  50216.51  37883.39  75.44
982.6  50458.51  38087.93  75.48
983.6  51132.02  38554.47  75.40
984.6  51562.39  38883.11  75.41
985.5  52257.60  39559.92  75.70
986.5  53039.20  39917.73  75.26
987.5  54168.11  40694.82  75.13
988.4  55057.20  41435.17  75.26
989.4  56551.39  42486.36  75.13
990.4  58242.03  43450.40  74.60
991.3  59136.61  44309.85  74.93
992.3  60254.81  44995.48  74.68
993.2  62830.60  46225.37  73.57
994.2  63759.15  47144.66  73.94
995.2  64907.22  47747.84  73.56
996.1  65710.99  47984.30  73.02
997.1  66771.58  48314.39  72.36
998.0  65779.20  47735.60  72.57
999.0  67569.18  47936.78  70.94
1000.0  65627.63  48001.92  73.14
1000.9  66106.32  47874.62  72.42
1001.9  66896.78  47706.19  71.31
1002.8  66066.52  47528.87  71.94
1003.8  66771.11  47568.96  71.24
1004.8  64803.12  47461.44  73.24
961.5  59942.22  40283.75  67.20
965.5  58683.65  39890.10  67.97
969.5  56453.82  39096.64  69.25
973.4  54183.76  38226.14  70.55
977.4  52184.81  37447.84  71.76
981.4  51194.56  37069.50  72.41
985.3  50809.00  36766.05  72.36
989.3  50771.60  36447.87  71.79
993.3  50798.35  36113.11  71.09
997.2  50697.53  35724.04  70.47
1001.2  50579.49  35442.16  70.07
1005.2  50486.54  35328.25  69.98
1009.1  50560.95  35392.03  70.00
1013.1  50727.98  35525.21  70.03
1017.1  50849.68  35599.40  70.01
1021.0  50849.88  35522.21  69.86
1025.0  50810.76  35417.23  69.70
1029.0  50630.25  35239.02  69.60
1032.9  50480.43  35094.50  69.52
1036.9  50465.40  35051.82  69.46
1040.9  50583.57  35109.16  69.41
1044.8  50808.96  35236.00  69.35
1048.8  51011.12  35335.29  69.27
1052.7  51152.74  35404.04  69.21
1056.7  51218.34  35419.58  69.15
1060.7  51244.53  35431.10  69.14
1064.6  51271.85  35444.58  69.13
1068.6  51212.40  35388.58  69.10
1072.5  51129.80  35340.38  69.12
1076.5  51067.99  35313.71  69.15
1080.4  51059.78  35295.83  69.13
1084.4  51173.05  35340.27  69.06
1088.3  51270.71  35379.47  69.01
1092.3  51246.52  35314.12  68.91
1096.2  51213.59  35214.55  68.76
1100.2  51236.75  35101.07  68.51
1104.1  51113.59  34782.62  68.05
1108.1  51042.38  34375.86  67.35
1112.0  50923.58  33927.69  66.62
1116.0  50680.63  33541.26  66.18
1119.9  50469.69  33235.35  65.85
1123.9  50510.21  32925.14  65.19
1127.8  50453.76  32331.52  64.08
1131.8  50410.11  31761.43  63.01
1135.7  50431.75  31597.37  62.65
1139.6  50412.72  31844.40  63.17
1143.6  50359.32  32289.25  64.12
1147.5  50310.97  32707.56  65.01
1151.4  50143.03  32865.85  65.54
1155.4  50134.85  32946.00  65.71
1159.3  50144.08  32909.44  65.63
1163.2  49963.74  32688.78  65.43
1167.2  49935.24  32544.40  65.17
1171.1  49953.49  32439.85  64.94
1175.0  49867.99  32323.39  64.82
1179.0  49819.26  32312.70  64.86
1182.9  49917.95  32494.02  65.09
1186.8  49905.20  32698.59  65.52
1190.7  49670.39  32780.58  66.00
1194.7  49404.69  32803.18  66.40
1198.6  49164.89  32798.54  66.71
1202.5  49001.90  32764.64  66.86
1206.4  48884.92  32696.53  66.88
1210.3  48777.95  32622.13  66.88
1214.2  48660.86  32533.76  66.86
1218.2  48519.81  32428.46  66.84
1222.1  48391.40  32361.37  66.87
1226.0  48286.77  32354.63  67.01
1229.9  48199.26  32383.00  67.19
1233.8  48101.55  32390.20  67.34
1237.7  48042.85  32362.88  67.36
1241.6  47954.67  32263.50  67.28
1245.5  47801.28  32094.10  67.14
1249.4  47677.41  31923.71  66.96
1253.3  47548.54  31747.52  66.77
1257.2  47470.59  31596.05  66.56
1261.1  47367.50  31444.20  66.38
1265.0  47247.17  31322.37  66.29
1268.9  47057.34  31195.60  66.29
1272.8  47119.05  31203.70  66.22
1276.7  47328.98  31274.69  66.08
1280.6  47427.97  31286.59  65.97
1284.5  47354.06  31164.37  65.81
1288.4  47330.17  31061.03  65.63
1292.3  47195.50  30891.67  65.45
1296.2  47036.33  30698.05  65.26
1300.1  46870.36  30477.43  65.02
1303.9  46619.88  30198.92  64.78
1307.8  46362.46  29960.66  64.62
1311.7  46091.30  29763.68  64.58
1315.6  45825.96  29591.06  64.57
1319.5  45558.05  29434.62  64.61
1323.3  45306.73  29283.38  64.63
1327.2  45081.41  29115.02  64.58
1331.1  44830.46  28900.70  64.47
1335.0  44517.46  28618.13  64.29
1338.8  44295.06  28356.10  64.02
1342.7  44103.48  28052.15  63.61
1346.5  43706.23  27515.74  62.96
1350.4  43365.23  26957.14  62.16
1354.3  42904.30  26364.41  61.45
1358.1  42414.00  25867.33  60.99
1362.0  42133.73  25619.29  60.80
1365.8  42044.97  25534.42  60.73
1369.7  42179.02  25524.13  60.51
1373.5  42126.10  25281.05  60.01
1377.4  41845.31  24885.58  59.47
1381.2  41626.26  24636.78  59.19
1385.1  41605.67  24560.53  59.03
1389.0  41500.27  24404.13  58.80
1392.8  41279.89  24149.40  58.50
1396.6  41128.69  23948.89  58.23
1400.5  40917.36  23726.72  57.99
1404.3  40743.76  23554.31  57.81
1408.2  40714.23  23465.62  57.63
1412.0  40658.86  23324.87  57.37
1415.8  40688.80  23199.25  57.02
1419.6  40646.12  22997.77  56.58
1423.5  40609.62  22783.06  56.10
1427.3  40564.30  22584.30  55.68
1431.1  40541.03  22439.35  55.35
1434.9  40441.04  22310.33  55.17
1438.8  40382.86  22239.43  55.07
1442.6  40343.84  22195.27  55.02
1446.4  40196.90  22098.04  54.97
1450.2  40086.31  22021.73  54.94
1454.0  39952.44  21929.04  54.89
1457.8  39925.25  21878.38  54.80
1461.6  39899.87  21818.22  54.68
1465.4  39763.25  21690.70  54.55
1469.2  39564.53  21537.43  54.44
1473.0  39396.65  21425.81  54.38
1476.8  39327.39  21368.40  54.33
1480.7  39262.61  21288.14  54.22
1484.4  39136.20  21141.68  54.02
1488.2  39038.16  20970.68  53.72
1492.0  38896.77  20727.51  53.29
1495.8  38756.90  20419.64  52.69
1499.6  38633.61  20021.77  51.82
1503.4  38493.31  19524.27  50.72
1507.2  38360.25  19004.81  49.54
1510.9  38195.59  18516.73  48.48
1514.7  38022.72  18098.78  47.60
1518.5  37900.97  17778.38  46.91
1522.3  37750.02  17518.75  46.41
1526.0  37629.32  17320.98  46.03
1529.8  37568.00  17199.70  45.78
1533.6  37446.52  17061.41  45.56
1537.3  37311.54  16890.24  45.27
1541.1  37176.81  16714.47  44.96
1544.8  37039.20  16557.60  44.70
1548.6  36901.40  16392.07  44.42
1552.4  36801.24  16185.84  43.98
1556.1  36709.12  15903.59  43.32
1559.9  36606.65  15588.93  42.58
1563.6  36470.47  15331.01  42.04
1567.3  36356.68  15192.43  41.79
1571.1  36135.22  15085.79  41.75
1574.8  35991.19  15025.37  41.75
1578.6  35886.86  14950.47  41.66
1582.3  35744.22  14823.75  41.47
1586.0  35609.35  14676.30  41.21
1589.8  35457.22  14489.73  40.87
1593.5  35302.19  14279.09  40.45
1597.2  35165.05  14089.87  40.07
1600.9  35016.52  13910.97  39.73
1604.7  34867.53  13742.76  39.41
1608.4  34730.61  13590.69  39.13
1612.1  34557.54  13419.15  38.83
1615.8  34413.02  13239.42  38.47
1619.5  34337.68  13071.84  38.07
1623.2  34189.48  12852.94  37.59
1626.9  34000.04  12544.35  36.90
1630.6  33831.60  12116.13  35.81
1634.3  33692.41  11662.82  34.62
1638.0  33541.83  11349.38  33.84
1641.7  33356.57  11259.78  33.76
1645.4  33161.69  11307.66  34.10
1649.1  32972.09  11343.08  34.40
1652.8  32801.54  11285.89  34.41
1656.4  32621.94  11096.70  34.02
1660.1  32453.88  10814.81  33.32
1663.8  32259.22  10502.76  32.56
1667.5  32099.10  10281.86  32.03
1671.1  31958.82  10220.78  31.98
1674.8  31759.13  10292.42  32.41
1678.5  31706.08  10462.75  33.00
1682.1  31722.89  10598.49  33.41
1685.8  31732.56  10681.84  33.66
1689.5  31624.03  10768.19  34.05
1693.1  31483.08  10935.18  34.73
1696.8  31338.13  11137.96  35.54
1700.4  31185.14  11297.03  36.23
1704.0  31062.51  11406.65  36.72
1707.7  30798.04  11382.00  36.96
1711.3  30495.47  11265.90  36.94
1715.0  30277.23  11138.08  36.79
1718.6  30100.95  10984.86  36.49
1722.2  29962.74  10819.95  36.11
1725.9  29812.62  10680.74  35.83
1729.5  29667.76  10604.84  35.75
1733.1  29538.89  10587.59  35.84
1736.7  29414.14  10589.19  36.00
1740.3  29250.14  10554.77  36.08
1744.0  29154.53  10549.59  36.19
1747.5  29000.44  10529.17  36.31
1751.2  28775.51  10471.78  36.39
1754.8  28605.69  10435.17  36.48
1758.4  28462.58  10387.09  36.49
1762.0  28276.20  10309.33  36.46
1765.5  28135.25  10261.55  36.47
1769.1  28084.80  10275.20  36.59
1772.7  28003.71  10302.97  36.79
1776.3  27877.58  10325.39  37.04
1779.9  27744.38  10355.61  37.33
1783.5  27681.76  10410.21  37.61
1787.0  27561.47  10424.99  37.82
1790.6  27400.03  10419.82  38.03
1794.2  27283.58  10429.94  38.23
1797.8  27171.37  10432.50  38.40
1801.3  27078.88  10437.65  38.55
1804.9  26927.25  10411.63  38.67
1808.4  26839.46  10407.32  38.78
1812.0  26683.02  10375.83  38.89
1815.5  26515.64  10330.48  38.96
1819.1  26311.24  10268.15  39.03
1822.6  26144.27  10234.72  39.15
1826.2  26001.22  10221.19  39.31
1829.7  25808.19  10179.78  39.44
1833.2  25554.19  10114.04  39.58
1836.8  25320.75  10072.03  39.78
1840.3  25192.67  10091.52  40.06
1843.8  25093.88  10139.08  40.40
1847.3  25048.77  10205.60  40.74
1850.8  25006.46  10260.10  41.03
1854.3  24882.94  10272.47  41.28
1857.8  24809.20  10276.93  41.42
1861.3  24778.14  10253.91  41.38
1864.8  24674.08  10148.10  41.13
1868.3  24414.78  10018.58  41.03
1871.8  24184.32  9976.32  41.25
1875.3  24125.47  10027.14  41.56
1878.8  24137.81  10067.09  41.71
1882.3  24078.64  10031.46  41.66
1885.8  23884.19  9928.99  41.57
1889.3  23688.44  9820.14  41.46
1892.7  23560.49  9698.08  41.16
1896.2  23413.27  9576.25  40.90
1899.7  23209.25  9462.09  40.77
1903.1  23142.50  9443.28  40.80
1906.6  23284.20  9521.22  40.89
1910.0  23641.63  9666.52  40.89
1913.5  24082.47  9920.68  41.19
1917.0  24628.98  10265.15  41.68
1920.4  25053.95  10554.71  42.13
1923.8  25086.73  10619.87  42.33
1871.2  21828.79  8688.02  39.80
1873.9  21992.11  8909.24  40.51
1876.7  22156.72  9033.10  40.77
1879.5  22368.96  9057.93  40.49
1882.3  22103.08  8979.57  40.63
1885.1  21946.52  8887.22  40.49
1887.8  22068.08  8854.17  40.12
1890.6  21822.87  8742.66  40.06
1893.4  21750.67  8665.56  39.84
1896.2  21682.13  8552.28  39.44
1898.9  21614.52  8418.85  38.95
1901.7  21461.80  8262.98  38.50
1904.5  21657.26  8284.14  38.25
1907.2  21622.00  8225.42  38.04
1910.0  21512.91  8137.95  37.83
1912.7  21473.88  8082.73  37.64
1915.5  21387.02  8032.21  37.56
1918.2  21326.87  7988.03  37.46
1921.0  21159.50  7907.02  37.37
1923.7  21210.60  7941.75  37.44
1926.5  21207.41  7936.50  37.42
1929.2  21180.03  7919.40  37.39
1932.0  21153.04  7906.32  37.38
1934.7  21108.13  7878.16  37.32
1937.4  20985.88  7839.98  37.36
1940.2  20941.69  7869.78  37.58
1942.9  21040.95  7933.24  37.70
1945.6  21034.30  7953.67  37.81
1948.3  20953.04  7955.04  37.97
1951.1  20946.59  7959.44  38.00
1953.8  20949.00  7980.00  38.09
1956.5  20812.26  7957.72  38.24
1959.2  20870.20  7994.26  38.30
1961.9  20880.86  8019.18  38.40
1964.6  20765.50  8002.75  38.54
1967.3  20814.13  8034.72  38.60
1970.0  20648.96  7963.39  38.57
1972.8  20547.54  7912.10  38.51
1975.5  20609.59  7915.66  38.41
1978.2  20556.80  7852.85  38.20
1980.9  20442.90  7784.02  38.08
1983.5  20332.16  7720.66  37.97
1986.2  20335.08  7659.12  37.66
1988.9  20352.54  7608.68  37.38
1991.6  20178.18  7474.37  37.04
1994.3  20021.93  7290.15  36.41
1997.0  20047.82  7145.86  35.64
1999.7  20006.90  6945.60  34.72
2002.3  19987.08  6740.03  33.72
2005.0  19903.66  6571.27  33.02
2007.7  19802.93  6436.62  32.50
2010.4  19742.33  6320.02  32.01
2013.0  19684.56  6160.38  31.30
2015.7  19550.67  5927.72  30.32
2018.4  19445.35  5715.88  29.39
2021.0  19399.83  5616.61  28.95
2023.7  19272.21  5622.24  29.17
2026.4  19215.30  5690.61  29.61
2029.0  19139.02  5735.80  29.97
2031.7  19015.32  5681.22  29.88
2034.3  19009.68  5557.28  29.23
2037.0  18888.65  5395.42  28.56
2039.6  18809.95  5285.32  28.10
2042.3  18768.09  5255.33  28.00
2044.9  18678.50  5345.40  28.62
2047.5  18656.06  5510.89  29.54
2050.2  18564.00  5651.33  30.44
2052.8  18496.80  5777.33  31.23
2055.4  18370.53  5822.80  31.70
2058.1  18222.40  5814.67  31.91
2060.7  18164.71  5811.74  31.99
2063.3  18093.83  5760.97  31.84
2065.9  18025.79  5688.49  31.56
2068.6  17958.79  5628.00  31.34
2071.2  17950.86  5573.49  31.05
2073.8  17825.38  5484.74  30.77
2076.4  17752.17  5414.99  30.50
2079.0  17784.49  5358.67  30.13
2081.6  17757.76  5295.63  29.82
2084.2  17714.42  5237.95  29.57
2086.8  17575.26  5125.88  29.17
2089.4  17476.70  5021.85  28.73
2092.1  17379.67  4926.22  28.34
2094.7  17322.90  4843.94  27.96
2097.2  17308.83  4783.61  27.64
2099.8  17282.11  4733.06  27.39
2102.4  17168.05  4629.90  26.97
2105.0  17051.55  4503.00  26.41
2107.6  16978.92  4396.88  25.90
2110.2  16924.97  4282.39  25.30
2112.8  16902.26  4158.52  24.60
2115.3  16895.66  4065.39  24.06
2117.9  16908.01  4017.84  23.76
2120.5  16886.60  3994.52  23.65
2123.1  16792.43  4001.40  23.83
2125.6  16744.21  3990.34  23.83
2128.2  16658.59  3930.52  23.59
2130.8  16549.65  3878.55  23.44
2133.3  16508.80  3826.05  23.18
2135.9  16408.62  3760.43  22.92
2138.4  16250.87  3701.01  22.77
2141.0  16149.08  3620.03  22.42
2143.6  16130.03  3533.64  21.91
2146.1  15975.72  3452.54  21.61
2148.7  15802.20  3387.93  21.44
2151.2  15798.93  3389.96  21.46
2153.8  15823.36  3438.79  21.73
2156.3  15717.64  3476.07  22.12
2158.8  15646.76  3530.22  22.56
2161.4  15629.12  3595.00  23.00
2163.9  15531.82  3586.16  23.09
2166.4  15439.71  3557.86  23.04
2169.0  15407.19  3554.90  23.07
2171.5  15330.32  3504.64  22.86
2174.0  15229.03  3471.83  22.80
2176.5  15192.19  3485.34  22.94
2179.1  15136.64  3478.48  22.98
2181.6  15050.17  3489.81  23.19
2184.1  15027.32  3512.23  23.37
2186.6  15051.45  3538.99  23.51
2189.1  14948.97  3557.75  23.80
2191.6  14892.73  3583.53  24.06
2194.1  14904.32  3626.15  24.33
2196.6  14914.76  3651.42  24.48
2199.2  14971.93  3695.31  24.68
2201.7  14888.99  3733.29  25.07
2204.1  14839.59  3777.40  25.45
2206.6  14849.13  3825.74  25.76
2209.1  14825.85  3844.30  25.93
2211.6  14838.39  3856.15  25.99
2214.1  14807.49  3882.77  26.22
2216.6  14760.32  3875.56  26.26
2219.1  14771.72  3856.57  26.11
2221.6  14667.09  3852.35  26.27
2224.0  14588.49  3821.43  26.19
2226.5  14584.57  3794.86  26.02
2229.0  14625.21  3801.59  25.99
2231.5  14492.72  3757.23  25.92
2233.9  14462.04  3725.19  25.76
2236.4  14490.44  3700.45  25.54
2238.9  14372.38  3654.13  25.42
2241.3  14369.01  3617.19  25.17
2243.8  14353.46  3578.32  24.93
2246.2  14192.48  3507.09  24.71
2248.7  14165.54  3433.72  24.24
2251.2  14158.84  3370.60  23.81
2253.6  14077.44  3290.88  23.38
2256.1  14069.76  3229.44  22.95
2258.5  14052.82  3212.91  22.86
2260.9  13974.74  3176.66  22.73
2263.4  13979.21  3152.55  22.55
2265.8  13940.32  3156.83  22.65
2268.3  13823.21  3154.35  22.82
2270.7  13902.44  3175.58  22.84
2273.1  13859.69  3186.89  22.99
2275.6  13793.28  3220.48  23.35
2278.0  13820.63  3242.49  23.46
2280.4  13780.88  3264.67  23.69
2282.8  13643.75  3243.17  23.77
2285.3  13694.71  3248.06  23.72
2287.7  13772.94  3306.24  24.01
2290.1  13623.19  3274.68  24.04
2292.5  13587.57  3224.93  23.73
2294.9  13621.40  3189.00  23.41
2297.3  13518.19  3107.31  22.99
2299.7  13416.44  3007.31  22.42
2302.1  13368.12  2927.92  21.90
2304.5  13230.00  2825.01  21.35
2306.9  13132.00  2699.57  20.56
2309.3  13055.89  2640.96  20.23
2311.7  12972.13  2610.13  20.12
2314.1  12811.40  2555.98  19.95
2316.5  12745.90  2572.82  20.19
2318.9  12782.83  2581.79  20.20
2321.3  12752.61  2573.76  20.18
2323.7  12794.64  2591.67  20.26
2326.1  12779.13  2579.20  20.18
2328.4  12774.57  2596.95  20.33
2330.8  12850.78  2665.32  20.74
2333.2  12766.83  2726.34  21.35
2335.6  12679.19  2788.54  21.99
2337.9  12711.97  2837.87  22.32
2340.3  12649.58  2874.46  22.72
2342.7  12593.44  2907.15  23.08
2345.0  12548.90  2948.60  23.50
2347.4  12490.75  2997.67  24.00
2349.7  12332.30  2985.89  24.21
2352.1  12260.35  3039.00  24.79
2354.4  12293.23  3084.77  25.09
2356.8  12267.97  3079.22  25.10
2359.2  12202.67  3082.45  25.26
2361.5  12151.88  3044.15  25.05
2363.8  12147.35  3011.22  24.79
2366.2  12114.60  3008.42  24.83
2368.5  12055.05  2954.80  24.51
2370.9  12078.00  2895.74  23.98
2373.2  12073.55  2829.90  23.44
2375.5  11918.85  2737.63  22.97
2377.9  11847.11  2692.46  22.73
2380.2  11871.10  2716.93  22.89
2382.5  11795.37  2730.96  23.15
2384.8  11725.28  2731.41  23.30
2387.2  11706.77  2769.24  23.66
2389.5  11690.85  2792.08  23.88
2391.8  11683.69  2777.53  23.77
2394.1  11631.16  2731.85  23.49
2396.4  11573.29  2727.21  23.56
2398.7  11628.67  2734.63  23.52
2401.0  11516.91  2734.59  23.74
2403.3  11364.36  2743.98  24.15
2405.6  11396.20  2735.75  24.01
2407.9  11327.61  2735.46  24.15
2410.2  11249.92  2748.98  24.44
2412.5  11215.24  2723.77  24.29
2414.8  11184.03  2721.55  24.33
2417.1  11138.88  2709.87  24.33
2419.4  11144.19  2658.84  23.86
2421.7  11023.23  2602.05  23.61
2424.0  10957.63  2565.94  23.42
2426.2  11021.00  2548.38  23.12
2428.5  10919.43  2480.62  22.72
2430.8  10910.90  2410.72  22.09
2433.1  10869.73  2336.21  21.49
2435.4  10753.59  2295.82  21.35
2437.6  10731.21  2310.74  21.53
2439.9  10623.58  2266.59  21.34
2442.2  10642.87  2226.04  20.92
2444.4  10630.91  2172.89  20.44
2446.7  10506.16  2049.84  19.51
2448.9  10564.25  1962.05  18.57
2451.2  10584.96  1855.55  17.53
2453.4  10444.21  1743.71  16.70
2455.7  10436.14  1680.57  16.10
2457.9  10354.08  1589.34  15.35
2460.2  10295.55  1518.65  14.75
2462.4  10283.52  1512.16  14.70
2464.7  10150.11  1497.18  14.75
2466.9  10098.66  1504.42  14.90
2469.2  10156.77  1549.12  15.25
2471.4  10037.89  1540.59  15.35
2473.6  9935.38  1575.56  15.86
2475.9  9895.84  1636.89  16.54
2478.1  9796.61  1650.99  16.85
2480.3  9746.33  1638.31  16.81
2482.5  9728.88  1665.56  17.12
2484.8  9691.90  1682.06  17.36
2487.0  9643.48  1671.44  17.33
2489.2  9626.45  1701.15  17.67
2491.4  9537.09  1700.95  17.84
2493.6  9539.25  1682.63  17.64
2495.8  9525.76  1699.80  17.84
2498.0  9476.69  1748.34  18.45
2500.2  9528.68  1760.83  18.48
2502.4  9759.12  1802.64  18.47
2504.6  9850.11  1878.00  19.07
2506.8  9985.21  1919.11  19.22
