/*** Spectra Vista SIG Data ***/
name= GT.sig
comm= Averaged Ref/Tar of files: GT1,GT2,GT3
data=
346.4  468.20  157.77  33.70
347.9  473.76  160.33  33.84
349.5  521.04  161.93  31.08
351.1  558.48  157.77  28.25
352.6  585.06  165.51  28.29
354.2  625.05  167.88  26.86
355.7  673.50  184.88  27.45
357.3  724.71  192.33  26.54
358.8  751.43  191.99  25.55
360.4  798.47  197.10  24.68
361.9  821.87  202.45  24.63
363.5  851.78  202.79  23.81
365.1  887.68  202.85  22.85
366.6  918.37  200.70  21.85
368.2  973.68  198.99  20.44
369.7  1008.89  198.62  19.69
371.3  1073.36  202.93  18.91
372.8  1148.72  213.37  18.57
374.4  1191.49  211.93  17.79
375.9  1247.87  214.71  17.21
377.4  1278.23  213.26  16.68
379.0  1330.29  212.49  15.97
380.5  1360.26  215.22  15.82
382.1  1412.49  212.66  15.06
383.6  1460.03  210.64  14.43
385.2  1529.00  213.77  13.98
386.7  1608.26  214.34  13.33
388.3  1679.42  224.10  13.34
389.8  1759.55  229.30  13.03
391.3  1843.67  233.57  12.67
392.9  1897.62  242.58  12.78
394.4  1955.58  254.91  13.04
395.9  2019.02  272.34  13.49
397.5  2131.80  282.74  13.26
399.0  2240.25  288.71  12.89
400.6  2303.62  272.91  11.85
402.1  2342.64  270.38  11.54
403.6  2375.92  264.05  11.11
405.1  2451.81  265.90  10.85
406.7  2542.40  270.29  10.63
408.2  2650.73  278.58  10.51
409.7  2746.24  293.89  10.70
411.3  2843.51  297.74  10.47
412.8  2936.43  311.73  10.62
414.3  3034.90  324.30  10.69
415.8  3152.50  337.67  10.71
417.4  3253.58  345.68  10.62
418.9  3339.60  355.05  10.63
420.4  3424.70  361.58  10.56
421.9  3487.22  363.89  10.43
423.5  3546.87  366.75  10.34
425.0  3613.98  365.82  10.12
426.5  3695.85  372.60  10.08
428.0  3801.23  374.31  9.85
429.5  3926.30  381.57  9.72
431.1  4071.24  390.35  9.59
432.6  4225.66  403.53  9.55
434.1  4373.60  413.36  9.45
435.6  4514.36  429.25  9.51
437.1  4642.95  436.80  9.41
438.6  4769.06  452.28  9.48
440.1  4906.69  462.25  9.42
441.6  5042.30  476.86  9.46
443.1  5179.95  491.74  9.49
444.7  5318.34  510.74  9.60
446.2  5433.01  528.36  9.72
447.7  5551.25  547.43  9.86
449.2  5676.48  565.70  9.97
450.7  5788.64  584.55  10.10
452.2  5916.62  593.50  10.03
453.7  6028.91  604.69  10.03
455.2  6201.73  623.58  10.05
456.7  6390.56  644.86  10.09
458.2  6607.30  665.74  10.08
459.7  6823.25  686.76  10.06
461.2  7031.76  707.77  10.07
462.7  7219.07  725.49  10.05
464.2  7396.86  744.57  10.07
465.7  7583.22  763.20  10.06
467.2  7742.35  780.14  10.08
468.7  7912.00  804.07  10.16
470.2  8015.91  824.48  10.29
471.7  8177.13  853.81  10.44
473.2  8446.52  886.15  10.49
474.6  8688.33  895.85  10.31
476.1  8747.12  888.00  10.15
477.6  8779.39  892.16  10.16
479.1  8829.54  899.58  10.19
480.6  8916.06  908.62  10.19
482.1  9046.91  921.20  10.18
483.6  9204.08  944.85  10.27
485.1  9394.00  964.12  10.26
486.6  9626.34  996.13  10.35
488.0  9867.00  1027.71  10.42
489.5  10130.90  1063.43  10.50
491.0  10387.73  1104.51  10.63
492.5  10649.88  1151.33  10.81
494.0  10928.34  1202.11  11.00
495.4  11158.95  1259.01  11.28
496.9  11406.10  1318.58  11.56
498.4  11649.48  1383.11  11.87
499.9  11878.23  1458.16  12.28
501.4  12101.58  1536.65  12.70
502.8  12308.24  1626.39  13.21
504.3  12497.40  1718.34  13.75
505.8  12681.02  1822.57  14.37
507.2  12808.72  1928.24  15.05
508.7  12896.48  2037.33  15.80
510.2  12964.78  2155.84  16.63
511.6  13008.39  2277.08  17.50
513.1  13093.74  2411.56  18.42
514.6  13195.49  2553.34  19.35
516.0  13281.41  2701.26  20.34
517.5  13429.99  2870.71  21.38
519.0  13603.01  3048.47  22.41
520.5  13772.72  3230.80  23.46
521.9  13993.28  3427.91  24.50
523.4  14243.35  3631.23  25.49
524.8  14493.24  3833.16  26.45
526.3  14778.04  4038.92  27.33
527.8  15074.01  4239.02  28.12
529.2  15339.71  4426.96  28.86
530.7  15629.94  4617.15  29.54
532.1  15903.48  4789.72  30.12
533.6  16214.37  4966.12  30.63
535.0  16534.98  5142.81  31.10
536.5  16856.03  5305.89  31.48
538.0  17178.24  5470.93  31.85
539.4  17501.02  5621.54  32.12
540.9  17879.62  5792.09  32.39
542.3  18237.67  5943.22  32.59
543.8  18504.51  6065.21  32.78
545.2  18600.74  6131.83  32.97
546.6  18637.00  6183.35  33.18
548.1  18690.38  6239.36  33.38
549.5  18745.60  6289.98  33.55
551.0  18790.92  6332.31  33.70
552.4  18868.34  6378.63  33.81
553.9  18922.09  6406.23  33.86
555.3  18999.63  6428.63  33.84
556.8  19143.87  6462.76  33.76
558.2  19276.31  6481.07  33.62
559.6  19441.66  6502.42  33.45
561.1  19660.88  6536.13  33.24
562.5  19883.82  6562.19  33.00
564.0  20177.05  6597.51  32.70
565.4  20444.07  6613.62  32.35
566.8  20774.24  6641.73  31.97
568.3  21077.79  6647.27  31.54
569.7  21403.31  6648.72  31.06
571.1  21706.83  6633.46  30.56
572.6  22010.94  6619.05  30.07
574.0  22299.75  6598.85  29.59
575.4  22570.31  6576.07  29.14
576.9  22820.49  6551.16  28.71
578.3  23040.88  6524.14  28.32
579.7  23243.15  6499.24  27.96
581.1  23410.31  6462.15  27.60
582.6  23592.46  6438.16  27.29
584.0  23735.52  6408.34  27.00
585.4  23971.18  6402.88  26.71
586.8  24286.87  6419.29  26.43
588.3  24642.54  6449.27  26.17
589.7  24935.04  6473.14  25.96
591.1  25126.37  6469.38  25.75
592.5  25213.30  6450.09  25.58
594.0  25248.06  6418.91  25.42
595.4  25246.58  6386.89  25.30
596.8  25248.80  6360.07  25.19
598.2  25256.70  6333.94  25.08
599.6  25254.00  6303.56  24.96
601.0  25321.45  6288.77  24.84
602.4  25392.58  6266.68  24.68
603.9  25508.50  6249.77  24.50
605.3  25652.08  6230.30  24.29
606.7  25770.60  6202.56  24.07
608.1  26003.60  6186.15  23.79
609.5  26249.20  6169.40  23.50
610.9  26543.12  6158.96  23.20
612.3  26820.62  6140.78  22.90
613.7  27191.20  6136.28  22.57
615.1  27470.34  6109.13  22.24
616.5  27748.85  6083.27  21.92
617.9  28163.94  6094.52  21.64
619.3  28559.37  6109.01  21.39
620.7  29021.55  6143.03  21.17
622.1  29524.34  6195.81  20.99
623.5  30070.32  6275.91  20.87
624.9  30686.25  6376.31  20.78
626.3  31117.56  6449.29  20.73
627.7  30854.43  6391.69  20.72
629.1  30617.27  6339.45  20.71
630.5  30534.25  6331.71  20.74
631.9  30583.88  6344.06  20.74
633.3  30636.73  6329.31  20.66
634.7  30802.72  6316.37  20.51
636.1  30887.16  6250.19  20.24
637.5  30991.21  6161.64  19.88
638.9  31137.59  6068.09  19.49
640.2  31275.86  5942.89  19.00
641.6  31334.94  5789.78  18.48
643.0  31307.82  5634.34  18.00
644.4  31297.86  5464.75  17.46
645.8  31223.60  5247.62  16.81
647.2  31327.01  5058.72  16.15
648.5  31378.61  4872.66  15.53
649.9  31215.99  4692.71  15.03
651.3  31061.55  4547.08  14.64
652.7  30880.50  4419.75  14.31
654.1  30705.72  4344.52  14.15
655.5  30448.41  4279.75  14.06
656.8  30219.54  4197.61  13.89
658.2  30347.48  4142.95  13.65
659.6  30667.01  4102.33  13.38
660.9  30915.41  4033.86  13.05
662.3  31175.28  3964.48  12.72
663.7  31418.10  3897.18  12.40
665.0  31622.76  3824.51  12.09
666.4  31821.65  3757.06  11.81
667.8  32088.83  3710.44  11.56
669.1  32304.87  3670.23  11.36
670.5  32567.66  3652.06  11.21
671.9  32723.64  3635.55  11.11
673.2  32957.22  3653.80  11.09
674.6  33165.65  3679.82  11.10
676.0  33416.99  3730.57  11.16
677.3  33670.84  3801.87  11.29
678.7  33959.63  3901.08  11.49
680.0  34360.72  4044.51  11.77
681.4  34770.40  4235.50  12.18
682.8  35166.95  4483.65  12.75
684.1  35575.02  4798.09  13.49
685.5  35948.61  5196.85  14.46
686.8  36307.14  5691.29  15.68
688.2  36654.12  6287.36  17.15
689.5  36792.82  6960.90  18.92
690.9  36894.22  7732.93  20.96
692.2  37000.50  8583.98  23.20
693.6  37086.31  9515.78  25.66
694.9  37102.94  10482.42  28.25
696.2  37172.03  11513.08  30.97
697.6  37238.58  12571.87  33.76
698.9  37321.68  13644.58  36.56
700.3  37412.04  14719.80  39.35
701.6  37521.51  15794.31  42.09
703.0  37648.39  16847.23  44.75
704.3  37727.46  17844.46  47.30
705.6  37779.39  18784.89  49.72
707.0  37853.11  19705.88  52.06
708.3  37804.36  20522.12  54.29
709.6  37779.31  21291.48  56.36
711.0  37700.05  22006.00  58.37
712.3  37603.29  22661.00  60.26
713.6  37599.66  23347.03  62.09
714.9  37564.50  23969.89  63.81
716.3  37606.65  24613.02  65.45
717.6  37655.10  25238.75  67.03
718.9  37643.31  25780.42  68.49
720.2  37519.65  26201.95  69.84
721.6  37437.79  26615.49  71.09
722.9  37295.06  26964.37  72.30
724.2  37099.21  27204.92  73.33
725.5  36957.59  27479.96  74.36
726.8  36833.83  27715.35  75.24
728.1  36764.75  27960.64  76.05
729.5  36694.32  28171.57  76.77
730.8  36660.60  28367.89  77.38
732.1  36590.42  28495.47  77.88
733.4  36549.03  28649.93  78.39
734.7  36509.02  28787.10  78.85
736.0  36510.50  28945.54  79.28
737.3  36452.29  29040.69  79.67
738.6  36538.42  29252.29  80.06
739.9  36706.85  29514.65  80.41
741.2  36841.35  29733.07  80.71
742.5  37078.82  30043.02  81.02
743.8  37494.19  30483.82  81.30
745.1  38118.44  31076.50  81.53
746.4  38876.11  31776.11  81.74
747.7  39639.96  32523.05  82.05
749.0  40400.48  33270.53  82.35
750.3  40850.46  33784.23  82.70
751.6  40764.46  33851.41  83.04
752.9  40356.61  33614.16  83.29
754.2  39863.99  33301.04  83.54
755.4  39350.05  32923.79  83.67
756.7  39155.03  32823.90  83.83
758.0  39142.09  32854.29  83.94
759.3  39351.46  33080.35  84.06
760.6  39645.76  33407.84  84.27
761.9  39928.94  33704.54  84.41
763.1  40078.15  33899.45  84.58
764.4  40287.45  34145.59  84.75
765.7  40433.25  34311.66  84.86
767.0  40515.07  34441.77  85.01
768.2  40595.52  34573.73  85.17
769.5  40644.33  34663.93  85.29
770.8  40787.04  34852.86  85.45
772.0  40799.41  34924.99  85.60
773.3  40833.29  35033.15  85.80
774.6  40907.98  35171.41  85.98
775.8  40955.53  35302.68  86.20
777.1  40964.33  35364.90  86.33
778.4  40867.87  35356.04  86.51
779.6  40816.98  35362.27  86.64
780.9  40688.00  35331.87  86.84
782.1  40484.72  35227.94  87.02
783.4  40464.32  35278.60  87.18
784.6  40463.12  35332.54  87.32
785.9  40670.74  35595.41  87.52
787.1  41171.80  36093.03  87.66
788.4  41528.97  36565.34  88.05
789.6  41482.13  36685.95  88.44
790.9  41134.16  36477.35  88.68
792.1  40655.28  36139.33  88.89
793.4  40180.32  35793.75  89.08
794.6  39846.60  35577.77  89.29
795.8  39587.54  35414.34  89.46
797.1  39290.10  35226.43  89.66
798.3  39054.26  35099.23  89.87
799.5  38943.25  35047.42  90.00
800.8  38778.22  34972.68  90.19
802.0  38618.88  34896.51  90.36
803.2  38465.20  34801.14  90.47
804.5  38332.71  34769.88  90.71
805.7  38219.65  34718.18  90.84
806.9  38073.35  34646.57  91.00
808.1  37984.05  34606.33  91.11
809.4  37906.28  34583.16  91.23
810.6  37824.15  34537.38  91.31
811.8  37796.29  34537.92  91.38
813.0  37827.58  34561.93  91.37
814.2  37840.50  34600.93  91.44
815.4  37955.24  34717.73  91.47
816.6  38027.91  34791.10  91.49
817.9  38102.35  34886.19  91.56
819.1  38072.96  34846.50  91.53
820.3  37949.69  34755.83  91.58
821.5  37894.61  34672.14  91.50
822.7  37866.54  34616.03  91.42
823.9  37906.28  34613.83  91.31
825.1  37943.15  34598.41  91.18
826.3  38020.73  34585.69  90.97
827.5  38108.05  34570.85  90.72
828.7  38176.32  34568.60  90.55
829.9  38262.68  34542.19  90.28
831.0  38386.63  34565.12  90.04
832.2  38533.16  34590.17  89.77
833.4  38634.36  34628.09  89.63
834.6  38746.88  34663.59  89.46
835.8  38872.58  34706.70  89.28
837.0  39026.76  34774.31  89.10
838.1  39200.00  34897.97  89.03
839.3  39334.99  34978.29  88.92
840.5  39499.16  35068.57  88.78
841.7  39675.29  35197.10  88.71
842.9  39834.34  35307.64  88.64
844.0  40002.80  35420.86  88.55
845.2  40188.33  35535.44  88.42
846.4  40315.24  35637.76  88.40
847.5  40575.08  35838.94  88.33
848.7  40794.29  36020.72  88.30
849.9  41043.27  36214.03  88.23
851.0  41176.72  36315.90  88.20
852.2  41283.01  36409.43  88.19
853.3  41336.03  36431.69  88.14
854.5  41385.60  36440.33  88.05
855.6  41408.01  36456.17  88.04
856.8  41491.09  36484.04  87.93
857.9  41535.42  36487.35  87.85
859.1  41657.80  36600.05  87.86
860.2  41711.76  36608.63  87.77
861.4  41789.90  36644.96  87.69
862.5  41857.52  36667.62  87.60
863.7  41978.22  36756.29  87.56
864.8  42001.40  36765.63  87.53
865.9  42003.19  36713.15  87.41
867.1  42077.89  36744.37  87.32
868.2  42118.25  36740.02  87.23
869.3  42153.63  36747.14  87.17
870.5  42092.46  36677.07  87.13
871.6  42122.53  36661.50  87.04
872.7  42223.14  36706.85  86.94
873.9  42262.83  36707.54  86.86
875.0  42247.20  36653.95  86.76
876.1  42225.11  36615.63  86.72
877.2  42279.84  36592.92  86.55
878.3  42302.12  36545.81  86.39
879.4  42284.06  36544.71  86.43
880.5  42343.92  36541.85  86.30
881.7  42326.05  36489.92  86.21
882.8  42351.34  36509.80  86.21
883.9  42430.09  36512.94  86.05
885.0  42357.32  36456.81  86.07
886.1  42357.47  36414.54  85.97
887.2  42241.92  36275.31  85.88
888.3  42147.85  36183.72  85.85
889.4  42045.32  36053.58  85.75
890.5  41945.29  35947.06  85.70
891.6  41864.40  35838.88  85.61
892.7  41844.69  35778.94  85.50
893.8  41881.85  35747.96  85.35
894.9  41879.31  35691.00  85.22
896.0  41812.69  35637.46  85.23
897.0  41850.92  35619.91  85.11
898.1  41821.61  35559.05  85.03
899.2  41852.54  35523.44  84.88
900.3  41747.94  35411.88  84.82
901.4  41622.41  35304.10  84.82
902.4  41658.53  35273.54  84.67
903.5  41604.82  35162.86  84.52
904.6  41550.72  35127.16  84.54
905.7  41565.54  35086.68  84.41
906.7  41536.49  35005.56  84.28
907.8  41558.34  34973.18  84.15
908.9  41493.73  34856.67  84.00
909.9  41451.58  34773.05  83.89
911.0  41358.23  34647.93  83.78
912.1  41297.17  34523.80  83.60
913.1  41189.72  34410.39  83.54
914.2  41099.85  34218.44  83.26
915.2  41068.89  34130.84  83.11
916.3  41034.15  34055.10  82.99
917.3  40975.74  33938.68  82.83
918.4  40862.80  33727.75  82.54
919.4  40836.29  33593.01  82.26
920.5  40782.84  33472.30  82.07
921.5  40833.45  33372.87  81.73
922.6  40729.18  33210.73  81.54
923.6  40739.49  33072.63  81.18
924.7  40774.75  32931.55  80.76
925.7  40746.72  32776.93  80.44
926.7  40808.40  32643.06  79.99
927.8  40839.01  32537.48  79.67
928.8  40966.59  32450.26  79.21
929.9  41048.46  32375.64  78.87
930.9  41217.18  32320.28  78.41
931.9  41378.61  32285.23  78.02
932.9  41679.25  32317.03  77.54
934.0  41702.58  32187.19  77.18
935.0  41757.18  31980.06  76.59
936.0  41670.71  31747.76  76.19
937.0  41632.50  31520.56  75.71
938.1  41580.55  31281.57  75.23
939.1  41508.45  31092.48  74.91
940.1  41591.64  30911.68  74.32
941.1  41779.29  30885.43  73.93
942.1  41991.60  30830.91  73.42
943.1  42156.63  30735.20  72.91
944.1  42391.18  30678.00  72.37
945.2  42445.20  30493.71  71.84
946.2  42493.04  30347.15  71.42
947.2  42572.63  30145.47  70.81
948.2  42750.54  29990.19  70.15
949.2  42846.38  29833.62  69.63
950.2  42880.60  29586.96  69.00
951.2  42968.52  29414.42  68.46
952.2  43001.40  29218.68  67.95
953.2  43164.71  29093.42  67.40
954.2  43310.48  28923.90  66.78
955.2  43368.34  28735.56  66.26
956.2  43301.73  28520.28  65.86
957.2  43392.87  28379.92  65.40
958.2  43492.10  28247.85  64.95
959.2  43506.45  28187.90  64.79
960.1  43588.22  28085.27  64.43
961.1  43692.83  28041.74  64.18
962.1  43658.44  27962.06  64.05
963.1  43782.00  27896.43  63.72
964.1  43817.42  27919.75  63.72
965.1  43908.74  27944.43  63.64
966.1  44007.38  27918.56  63.44
967.0  44141.86  27927.52  63.27
968.0  44131.86  27941.17  63.31
969.0  44255.20  27946.97  63.15
970.0  44255.36  27961.44  63.18
971.0  44316.83  27942.77  63.05
971.9  44400.90  27970.21  62.99
972.9  44577.14  28081.39  63.00
973.9  44494.78  28077.33  63.10
974.9  44573.29  28164.21  63.19
975.8  44702.44  28206.53  63.10
976.8  44666.28  28244.65  63.23
977.8  44950.93  28372.29  63.12
978.8  44877.90  28474.88  63.45
979.7  45104.10  28510.93  63.21
980.7  45212.81  28592.36  63.24
981.7  45433.99  28777.76  63.34
982.6  45657.51  28959.63  63.43
983.6  46147.45  29351.78  63.60
984.6  46551.05  29613.15  63.61
985.5  47031.84  30130.63  64.06
986.5  47664.14  30606.22  64.21
987.5  48852.12  31239.08  63.95
988.4  49722.20  32184.28  64.73
989.4  51183.38  32944.62  64.37
990.4  52549.20  34152.12  64.99
991.3  54023.93  35379.71  65.49
992.3  54777.10  36426.77  66.50
993.2  55874.36  37690.88  67.46
994.2  57686.85  38660.31  67.02
995.2  57633.14  39699.72  68.88
996.1  59292.71  40710.25  68.66
997.1  59931.56  41061.81  68.51
998.0  60640.20  40700.88  67.12
999.0  59258.53  41697.77  70.37
1000.0  60377.42  42114.19  69.75
1000.9  59810.48  42169.01  70.50
1001.9  59598.95  42070.64  70.59
1002.8  60212.52  41187.04  68.40
1003.8  59788.51  41357.36  69.17
1004.8  59326.80  42395.84  71.46
961.5  55398.21  30390.06  54.86
965.5  54418.85  30308.51  55.69
969.5  52458.23  29730.63  56.67
973.4  50487.36  29015.21  57.47
977.4  48611.32  28509.19  58.65
981.4  47578.80  28466.93  59.83
985.3  47203.20  28619.13  60.63
989.3  47137.31  28910.10  61.33
993.3  47133.16  29248.03  62.05
997.2  47029.21  29524.74  62.78
1001.2  46955.35  29847.48  63.57
1005.2  46914.32  30202.12  64.38
1009.1  47038.13  30659.23  65.18
1013.1  47236.75  31208.74  66.07
1017.1  47375.30  31756.96  67.03
1021.0  47429.61  32234.64  67.96
1025.0  47461.87  32702.55  68.90
1029.0  47354.18  33085.65  69.87
1032.9  47271.77  33470.62  70.80
1036.9  47308.70  33924.55  71.71
1040.9  47476.08  34446.44  72.56
1044.8  47747.63  35002.95  73.31
1048.8  47970.59  35484.29  73.97
1052.7  48104.60  35883.12  74.59
1056.7  48183.46  36175.14  75.08
1060.7  48250.82  36388.40  75.42
1064.6  48272.17  36550.77  75.72
1068.6  48190.54  36565.77  75.88
1072.5  48116.11  36510.63  75.88
1076.5  48076.67  36447.18  75.81
1080.4  48048.88  36344.17  75.64
1084.4  48150.59  36246.87  75.28
1088.3  48279.53  36115.69  74.81
1092.3  48252.92  35845.11  74.29
1096.2  48221.83  35519.69  73.66
1100.2  48245.69  35222.42  73.01
1104.1  48124.97  34812.65  72.34
1108.1  48059.38  34427.06  71.63
1112.0  47955.87  34001.12  70.90
1116.0  47754.46  33463.28  70.07
1119.9  47569.76  32865.86  69.09
1123.9  47623.80  32281.14  67.78
1127.8  47592.96  31397.12  65.97
1131.8  47556.42  30270.45  63.65
1135.7  47568.82  28995.16  60.95
1139.6  47554.30  27602.27  58.04
1143.6  47510.71  26265.47  55.28
1147.5  47481.98  25128.63  52.92
1151.4  47337.52  24173.45  51.07
1155.4  47322.86  23570.27  49.81
1159.3  47329.81  23190.41  49.00
1163.2  47159.49  22842.82  48.44
1167.2  47113.86  22654.82  48.09
1171.1  47117.13  22531.89  47.82
1175.0  47022.16  22392.00  47.62
1179.0  46962.63  22279.19  47.44
1182.9  47045.30  22223.29  47.24
1186.8  47019.62  22126.27  47.06
1190.7  46784.64  21946.55  46.91
1194.7  46508.35  21767.18  46.80
1198.6  46264.68  21638.93  46.77
1202.5  46100.54  21567.93  46.78
1206.4  45962.62  21532.19  46.85
1210.3  45829.98  21534.27  46.99
1214.2  45707.13  21563.06  47.18
1218.2  45554.16  21598.68  47.41
1222.1  45384.95  21649.94  47.70
1226.0  45257.55  21716.36  47.98
1229.9  45156.00  21792.54  48.26
1233.8  45033.17  21849.16  48.52
1237.7  44950.68  21915.74  48.76
1241.6  44841.64  21963.98  48.98
1245.5  44683.61  21964.69  49.16
1249.4  44538.65  21969.33  49.33
1253.3  44401.40  21970.60  49.48
1257.2  44324.52  21972.44  49.57
1261.1  44209.48  21932.21  49.61
1265.0  44086.55  21861.73  49.59
1268.9  43910.05  21739.37  49.51
1272.8  43969.80  21713.20  49.38
1276.7  44155.69  21733.00  49.22
1280.6  44249.88  21668.37  48.97
1284.5  44188.89  21486.48  48.62
1288.4  44167.03  21299.92  48.23
1292.3  44060.50  21037.50  47.75
1296.2  43934.23  20727.72  47.18
1300.1  43787.98  20369.76  46.52
1303.9  43564.57  19947.60  45.79
1307.8  43339.22  19484.27  44.96
1311.7  43109.06  18985.99  44.04
1315.6  42877.90  18463.92  43.06
1319.5  42633.84  17905.77  42.00
1323.3  42417.44  17350.03  40.90
1327.2  42218.70  16797.39  39.79
1331.1  42002.86  16241.74  38.67
1335.0  41739.72  15681.56  37.57
1338.8  41543.11  15168.28  36.51
1342.7  41389.31  14701.98  35.52
1346.5  41042.00  14194.56  34.59
1350.4  40741.74  13736.89  33.72
1354.3  40332.24  13264.77  32.89
1358.1  39895.31  12798.25  32.08
1362.0  39644.33  12388.38  31.25
1365.8  39567.12  12005.38  30.34
1369.7  39683.68  11632.32  29.31
1373.5  39615.26  11141.34  28.12
1377.4  39354.79  10510.12  26.71
1381.2  39167.92  9789.40  24.99
1385.1  39160.09  9059.87  23.14
1389.0  39060.88  8311.44  21.28
1392.8  38834.72  7580.53  19.52
1396.6  38680.88  6930.44  17.92
1400.5  38476.57  6358.96  16.53
1404.3  38299.58  5892.06  15.38
1408.2  38263.03  5530.84  14.45
1412.0  38218.70  5248.36  13.73
1415.8  38249.29  5047.71  13.20
1419.6  38208.11  4881.54  12.78
1423.5  38172.20  4749.25  12.44
1427.3  38125.77  4652.62  12.20
1431.1  38099.78  4584.90  12.03
1434.9  38010.73  4524.37  11.90
1438.8  37949.80  4485.70  11.82
1442.6  37913.52  4460.59  11.77
1446.4  37795.09  4425.60  11.71
1450.2  37700.99  4411.40  11.70
1454.0  37583.52  4398.12  11.70
1457.8  37547.69  4401.29  11.72
1461.6  37527.24  4421.94  11.78
1465.4  37404.28  4441.67  11.87
1469.2  37216.73  4469.62  12.01
1473.0  37080.95  4518.33  12.19
1476.8  37019.78  4593.21  12.41
1480.7  36949.43  4684.11  12.68
1484.4  36826.56  4784.96  12.99
1488.2  36723.96  4902.00  13.35
1492.0  36584.11  5025.54  13.74
1495.8  36452.33  5145.29  14.12
1499.6  36350.05  5236.38  14.41
1503.4  36216.75  5303.58  14.64
1507.2  36087.28  5363.86  14.86
1510.9  35929.91  5412.33  15.06
1514.7  35749.31  5454.32  15.26
1518.5  35615.65  5520.11  15.50
1522.3  35466.30  5597.16  15.78
1526.0  35355.47  5692.97  16.10
1529.8  35294.61  5802.61  16.44
1533.6  35159.29  5891.35  16.76
1537.3  35020.99  5975.29  17.06
1541.1  34889.16  6046.75  17.33
1544.8  34754.40  6124.00  17.62
1548.6  34607.98  6202.32  17.92
1552.4  34514.76  6293.06  18.23
1556.1  34455.77  6388.91  18.54
1559.9  34373.05  6466.99  18.81
1563.6  34243.93  6540.29  19.10
1567.3  34122.03  6637.03  19.45
1571.1  33904.82  6712.67  19.80
1574.8  33749.79  6794.20  20.13
1578.6  33637.37  6871.87  20.43
1582.3  33496.17  6919.34  20.66
1586.0  33359.51  6957.19  20.86
1589.8  33217.24  6992.64  21.05
1593.5  33051.52  7030.65  21.27
1597.2  32917.71  7066.94  21.47
1600.9  32767.31  7104.07  21.68
1604.7  32613.52  7145.72  21.91
1608.4  32493.03  7183.51  22.11
1612.1  32320.35  7203.39  22.29
1615.8  32161.00  7231.63  22.49
1619.5  32072.28  7274.18  22.68
1623.2  31915.49  7292.70  22.85
1626.9  31725.78  7298.29  23.00
1630.6  31537.44  7306.79  23.17
1634.3  31397.73  7325.73  23.33
1638.0  31241.74  7333.46  23.47
1641.7  31050.65  7332.51  23.61
1645.4  30870.63  7327.24  23.74
1649.1  30683.95  7306.50  23.81
1652.8  30504.58  7287.92  23.89
1656.4  30322.32  7260.07  23.94
1660.1  30158.02  7233.23  23.98
1663.8  29966.42  7196.96  24.02
1667.5  29809.99  7162.55  24.03
1671.1  29676.54  7126.36  24.01
1674.8  29472.79  7067.43  23.98
1678.5  29413.48  7031.25  23.90
1682.1  29419.35  7000.37  23.80
1685.8  29417.21  6966.45  23.68
1689.5  29310.65  6899.96  23.54
1693.1  29167.59  6825.60  23.40
1696.8  29020.13  6745.79  23.25
1700.4  28874.60  6649.75  23.03
1704.0  28754.23  6558.07  22.81
1707.7  28493.62  6436.46  22.59
1711.3  28200.13  6298.24  22.33
1715.0  27991.44  6185.52  22.10
1718.6  27822.35  6078.65  21.85
1722.2  27677.55  5970.23  21.57
1725.9  27527.50  5869.22  21.32
1729.5  27386.37  5784.02  21.12
1733.1  27262.24  5727.21  21.01
1736.7  27144.69  5680.03  20.93
1740.3  26982.07  5617.08  20.82
1744.0  26899.89  5557.92  20.66
1747.5  26760.07  5477.78  20.47
1751.2  26551.35  5376.84  20.25
1754.8  26397.18  5285.96  20.02
1758.4  26262.14  5201.89  19.81
1762.0  26085.49  5113.26  19.60
1765.5  25956.49  5051.14  19.46
1769.1  25915.20  5016.00  19.36
1772.7  25841.75  4972.73  19.24
1776.3  25724.16  4917.47  19.12
1779.9  25608.69  4866.40  19.00
1783.5  25553.92  4834.35  18.92
1787.0  25434.82  4792.25  18.84
1790.6  25293.30  4752.49  18.79
1794.2  25193.03  4724.22  18.75
1797.8  25095.48  4699.20  18.73
1801.3  25012.46  4681.46  18.72
1804.9  24871.88  4656.75  18.72
1808.4  24792.34  4644.06  18.73
1812.0  24660.35  4609.17  18.69
1815.5  24519.60  4576.81  18.67
1819.1  24324.68  4541.52  18.67
1822.6  24164.48  4504.09  18.64
1826.2  24042.90  4468.59  18.59
1829.7  23859.90  4414.94  18.50
1833.2  23612.46  4352.67  18.43
1836.8  23400.20  4290.20  18.33
1840.3  23257.80  4232.18  18.20
1843.8  23131.92  4169.74  18.03
1847.3  23013.03  4111.83  17.87
1850.8  22865.47  4036.03  17.65
1854.3  22692.74  3935.11  17.34
1857.8  22594.00  3832.40  16.96
1861.3  22615.25  3711.77  16.41
1864.8  22605.64  3565.67  15.77
1868.3  22468.36  3361.56  14.96
1871.8  22341.12  3133.44  14.03
1875.3  22323.21  2910.94  13.04
1878.8  22320.32  2701.74  12.10
1882.3  22237.89  2501.34  11.25
1885.8  22045.10  2318.28  10.52
1889.3  21861.76  2157.54  9.87
1892.7  21710.01  2018.71  9.30
1896.2  21503.16  1939.05  9.02
1899.7  21232.37  1900.43  8.95
1903.1  21059.81  1910.22  9.07
1906.6  21101.81  2005.88  9.51
1910.0  21348.35  2195.99  10.29
1913.5  21771.66  2533.53  11.64
1917.0  22339.63  2966.31  13.28
1920.4  22881.38  3543.92  15.49
1923.8  23136.14  3919.24  16.94
1871.2  20260.60  2266.44  11.19
1873.9  20445.79  2197.78  10.75
1876.7  20658.97  2100.18  10.17
1879.5  20770.50  1923.19  9.26
1882.3  20488.21  1822.38  8.89
1885.1  20498.36  1706.76  8.33
1887.8  20542.45  1528.38  7.44
1890.6  20318.11  1426.79  7.02
1893.4  20320.67  1356.67  6.68
1896.2  20203.65  1263.01  6.25
1898.9  20201.38  1218.29  6.03
1901.7  20074.51  1165.87  5.81
1904.5  20223.67  1109.14  5.48
1907.2  20168.50  1100.42  5.46
1910.0  20030.00  1092.36  5.45
1912.7  20048.69  1079.57  5.38
1915.5  19979.54  1091.37  5.46
1918.2  19877.64  1078.27  5.42
1921.0  19705.09  1047.55  5.32
1923.7  19733.20  1053.86  5.34
1926.5  19715.86  1062.76  5.39
1929.2  19701.76  1060.34  5.38
1932.0  19674.16  1067.03  5.42
1934.7  19635.47  1064.11  5.42
1937.4  19518.79  1049.40  5.38
1940.2  19475.71  1059.27  5.44
1942.9  19573.26  1081.99  5.53
1945.6  19572.62  1097.27  5.61
1948.3  19494.00  1104.06  5.66
1951.1  19465.67  1117.71  5.74
1953.8  19476.00  1130.00  5.80
1956.5  19368.67  1133.11  5.85
1959.2  19423.04  1147.16  5.91
1961.9  19438.54  1147.30  5.90
1964.6  19331.55  1180.08  6.10
1967.3  19375.30  1193.59  6.16
1970.0  19228.16  1184.00  6.16
1972.8  19159.08  1212.95  6.33
1975.5  19219.42  1230.18  6.40
1978.2  19120.16  1234.19  6.45
1980.9  19002.89  1256.37  6.61
1983.5  18950.70  1268.03  6.69
1986.2  18944.10  1271.67  6.71
1988.9  18909.18  1291.07  6.83
1991.6  18787.78  1296.74  6.90
1994.3  18678.85  1310.34  7.02
1997.0  18669.58  1337.87  7.17
1999.7  18631.37  1347.77  7.23
2002.3  18617.79  1362.58  7.32
2005.0  18540.12  1387.51  7.48
2007.7  18469.93  1397.98  7.57
2010.4  18400.48  1398.00  7.60
2013.0  18316.11  1418.71  7.75
2015.7  18226.45  1422.73  7.81
2018.4  18129.14  1431.57  7.90
2021.0  18062.50  1460.11  8.08
2023.7  17946.51  1451.02  8.09
2026.4  17902.73  1450.58  8.10
2029.0  17806.29  1470.50  8.26
2031.7  17677.40  1481.56  8.38
2034.3  17722.47  1486.26  8.39
2037.0  17610.64  1487.26  8.45
2039.6  17527.07  1501.38  8.57
2042.3  17481.88  1510.88  8.64
2044.9  17393.81  1521.25  8.75
2047.5  17348.93  1532.47  8.83
2050.2  17253.60  1520.40  8.81
2052.8  17214.40  1540.00  8.95
2055.4  17090.17  1543.72  9.03
2058.1  16973.60  1530.67  9.02
2060.7  16918.14  1554.96  9.19
2063.3  16842.61  1563.32  9.28
2065.9  16794.67  1558.68  9.28
2068.6  16710.92  1558.68  9.33
2071.2  16664.67  1581.93  9.49
2073.8  16591.32  1582.92  9.54
2076.4  16536.88  1592.32  9.63
2079.0  16525.61  1604.51  9.71
2081.6  16519.89  1608.29  9.74
2084.2  16487.00  1632.80  9.90
2086.8  16353.42  1623.47  9.93
2089.4  16268.28  1609.33  9.89
2092.1  16209.50  1622.56  10.01
2094.7  16113.80  1645.10  10.21
2097.2  16087.67  1646.17  10.23
2099.8  16089.36  1653.91  10.28
2102.4  15953.94  1664.30  10.43
2105.0  15826.05  1657.75  10.47
2107.6  15774.07  1665.33  10.56
2110.2  15742.83  1668.06  10.60
2112.8  15734.02  1681.73  10.69
2115.3  15735.22  1711.79  10.88
2117.9  15738.64  1717.79  10.91
2120.5  15682.70  1712.08  10.92
2123.1  15604.88  1721.85  11.03
2125.6  15567.02  1734.55  11.14
2128.2  15487.92  1720.88  11.11
2130.8  15394.28  1719.90  11.17
2133.3  15347.20  1727.73  11.26
2135.9  15264.31  1722.84  11.29
2138.4  15119.35  1710.05  11.31
2141.0  15032.51  1709.13  11.37
2143.6  14998.41  1729.68  11.53
2146.1  14847.40  1724.80  11.62
2148.7  14686.27  1708.16  11.63
2151.2  14704.80  1717.96  11.68
2153.8  14713.72  1736.57  11.80
2156.3  14589.47  1719.82  11.79
2158.8  14533.35  1702.11  11.71
2161.4  14517.59  1724.77  11.88
2163.9  14426.20  1725.76  11.96
2166.4  14354.62  1709.94  11.91
2169.0  14310.27  1718.81  12.01
2171.5  14227.48  1715.85  12.06
2174.0  14143.15  1696.74  12.00
2176.5  14124.76  1700.31  12.04
2179.1  14082.55  1703.60  12.10
2181.6  13967.33  1689.14  12.09
2184.1  13937.00  1689.89  12.13
2186.6  13993.83  1709.35  12.22
2189.1  13896.09  1693.81  12.19
2191.6  13840.87  1684.51  12.17
2194.1  13877.92  1696.26  12.22
2196.6  13844.81  1701.73  12.29
2199.2  13897.52  1710.45  12.31
2201.7  13871.80  1695.32  12.22
2204.1  13802.39  1674.91  12.13
2206.6  13786.08  1684.72  12.22
2209.1  13743.34  1684.33  12.26
2211.6  13738.26  1680.01  12.23
2214.1  13693.60  1675.27  12.23
2216.6  13643.61  1663.67  12.19
2219.1  13655.01  1651.01  12.09
2221.6  13597.41  1635.60  12.03
2224.0  13563.60  1628.14  12.00
2226.5  13534.39  1617.13  11.95
2229.0  13551.73  1616.56  11.93
2231.5  13416.49  1580.51  11.78
2233.9  13376.81  1561.14  11.67
2236.4  13409.64  1564.59  11.67
2238.9  13341.63  1528.04  11.45
2241.3  13300.17  1515.80  11.40
2243.8  13261.31  1522.28  11.48
2246.2  13153.53  1510.61  11.48
2248.7  13089.53  1471.96  11.25
2251.2  13067.33  1446.37  11.07
2253.6  13017.60  1440.00  11.06
2256.1  12979.20  1401.60  10.80
2258.5  12980.99  1400.93  10.79
2260.9  12912.45  1389.55  10.76
2263.4  12850.74  1342.14  10.44
2265.8  12840.17  1354.03  10.55
2268.3  12768.77  1328.96  10.41
2270.7  12812.36  1292.24  10.09
2273.1  12778.22  1284.73  10.05
2275.6  12710.40  1280.00  10.07
2278.0  12729.12  1279.83  10.05
2280.4  12680.26  1250.71  9.86
2282.8  12544.20  1228.61  9.79
2285.3  12570.98  1220.94  9.71
2287.7  12679.54  1214.46  9.58
2290.1  12579.51  1193.91  9.49
2292.5  12520.09  1154.78  9.22
2294.9  12538.64  1145.99  9.14
2297.3  12458.25  1135.09  9.11
2299.7  12334.59  1102.90  8.94
2302.1  12311.40  1084.22  8.81
2304.5  12214.72  1066.24  8.73
2306.9  12089.28  1030.96  8.53
2309.3  11994.02  1017.46  8.48
2311.7  11939.85  1010.04  8.46
2314.1  11791.37  980.65  8.32
2316.5  11721.50  991.57  8.46
2318.9  11765.88  1003.81  8.53
2321.3  11730.50  1014.19  8.65
2323.7  11744.39  1015.64  8.65
2326.1  11719.24  1000.78  8.54
2328.4  11761.55  981.82  8.35
2330.8  11807.83  989.78  8.38
2333.2  11712.54  967.81  8.26
2335.6  11662.03  947.97  8.13
2337.9  11681.16  965.43  8.26
2340.3  11629.38  943.23  8.11
2342.7  11548.22  926.73  8.02
2345.0  11508.47  903.12  7.85
2347.4  11492.00  869.83  7.57
2349.7  11315.65  851.49  7.52
2352.1  11286.89  877.68  7.78
2354.4  11296.02  872.56  7.72
2356.8  11214.70  837.43  7.47
2359.2  11154.00  847.89  7.60
2361.5  11109.05  833.40  7.50
2363.8  11141.66  821.24  7.37
2366.2  11165.73  831.18  7.44
2368.5  11089.40  808.42  7.29
2370.9  11067.03  799.24  7.22
2373.2  11030.32  800.41  7.26
2375.5  10914.30  796.40  7.30
2377.9  10876.18  779.47  7.17
2380.2  10876.88  786.52  7.23
2382.5  10821.23  781.15  7.22
2384.8  10769.44  737.76  6.85
2387.2  10736.28  754.82  7.03
2389.5  10704.02  758.61  7.09
2391.8  10661.73  736.77  6.91
2394.1  10613.91  751.74  7.08
2396.4  10610.47  743.49  7.01
2398.7  10654.34  701.52  6.58
2401.0  10513.07  708.79  6.74
2403.3  10428.12  702.18  6.73
2405.6  10456.51  679.78  6.50
2407.9  10375.71  691.38  6.66
2410.2  10317.44  678.47  6.58
2412.5  10224.31  664.01  6.49
2414.8  10187.84  677.82  6.65
2417.1  10204.62  667.58  6.54
2419.4  10195.97  635.62  6.23
2421.7  10103.31  622.04  6.16
2424.0  10048.90  612.87  6.10
2426.2  10074.05  583.15  5.79
2428.5  10032.46  614.75  6.13
2430.8  10006.20  634.02  6.34
2433.1  9945.94  575.29  5.78
2435.4  9886.37  594.94  6.02
2437.6  9830.42  589.34  6.00
2439.9  9708.34  533.43  5.49
2442.2  9709.99  561.25  5.78
2444.4  9752.18  549.45  5.63
2446.7  9688.56  539.23  5.57
2448.9  9658.24  560.58  5.80
2451.2  9631.36  534.41  5.55
2453.4  9564.32  508.25  5.31
2455.7  9566.46  525.05  5.49
2457.9  9468.86  516.89  5.46
2460.2  9395.46  493.20  5.25
2462.4  9422.40  515.84  5.47
2464.7  9348.95  492.05  5.26
2466.9  9251.22  460.10  4.97
2469.2  9249.34  475.32  5.14
2471.4  9151.61  474.87  5.19
2473.6  9078.42  470.89  5.19
2475.9  9042.40  480.91  5.32
2478.1  8956.32  491.88  5.49
2480.3  8952.70  445.55  4.98
2482.5  8971.16  433.67  4.83
2484.8  8832.66  439.33  4.97
2487.0  8762.09  399.96  4.56
2489.2  8850.00  419.64  4.74
2491.4  8753.22  427.80  4.89
2493.6  8669.20  415.43  4.79
2495.8  8662.66  461.91  5.33
2498.0  8674.13  426.95  4.92
2500.2  8694.60  387.55  4.46
2502.4  8942.16  420.32  4.70
2504.6  9089.52  447.59  4.92
2506.8  9176.65  500.07  5.45
