/*** Spectra Vista SIG Data ***/
name= GT.sig
comm= Resampled spectral data SIG file reprocesed for matching/overlap;Averaged Ref/Tar of files: GT1,GT2,GT3
data=
346.0  468.20  157.77  33.70
356.0  683.10  186.28  27.27
366.0  906.09  201.56  22.24
376.0  1249.89  214.61  17.17
386.0  1571.27  214.07  13.62
396.0  2026.07  272.99  13.47
406.0  2502.77  268.37  10.72
416.0  3165.14  338.67  10.70
426.0  3668.56  370.34  10.09
436.0  4548.65  431.26  9.48
446.0  5417.72  526.01  9.71
456.0  6302.44  634.93  10.07
466.0  7615.04  766.59  10.07
476.0  8743.20  888.52  10.16
486.0  9533.40  983.33  10.31
496.0  11257.81  1282.84  11.40
506.0  12699.26  1837.67  14.47
516.0  13281.41  2701.26  20.34
526.0  14721.08  3997.77  27.16
536.0  16749.01  5251.53  31.35
546.0  18621.46  6161.27  33.09
556.0  19066.94  6444.56  33.80
566.0  20585.57  6625.67  32.19
576.0  22670.38  6566.11  28.96
586.0  24106.47  6409.91  26.59
596.0  25247.53  6375.40  25.25
606.0  25711.34  6216.43  24.18
616.0  27649.38  6092.51  22.03
626.0  31025.14  6433.65  20.74
636.0  30881.13  6254.92  20.25
646.0  31238.37  5220.63  16.71
656.0  30360.38  4248.16  13.99
666.0  31764.82  3776.33  11.89
676.0  33416.99  3730.57  11.16
686.0  36086.51  5387.02  14.93
696.0  37161.40  11354.51  30.55
706.0  37800.45  19048.04  50.39
716.0  37597.62  24475.21  65.10
726.0  36909.99  27570.50  74.70
736.0  36510.50  28945.54  79.28
746.0  38642.98  31560.84  81.67
756.0  39260.04  32877.69  83.74
766.0  40452.13  34341.68  84.89
776.0  40956.88  35312.25  86.22
786.0  40712.49  35636.87  87.53
796.0  39541.78  35385.43  89.49
806.0  38183.08  34700.28  90.88
816.0  37991.58  34754.42  91.48
826.0  38001.34  34588.87  91.02
836.0  38898.28  34717.97  89.25
846.0  40272.93  35603.65  88.41
856.0  41435.70  36465.46  88.00
866.0  42009.41  36715.75  87.40
876.0  42227.12  36619.11  86.72
886.0  42357.46  36418.38  85.98
896.0  41812.69  35637.46  85.23
906.0  41556.83  35062.34  84.37
916.0  41043.62  34075.76  83.02
926.0  40765.22  32736.77  80.31
936.0  41670.71  31747.76  76.19
946.0  42483.47  30376.46  71.50
956.0  43315.05  28563.34  65.94
966.0  43997.52  27921.15  63.46
976.0  44695.21  28214.15  63.13
986.0  47191.67  28670.05  60.75
996.0  47061.19  29439.60  62.56
1006.0  46939.72  30295.89  64.54
1016.0  47337.20  31606.20  66.77
1026.0  47434.95  32798.33  69.14
1036.0  47300.39  33822.41  71.51
1046.0  47814.52  35147.35  73.51
1056.0  48169.66  36124.04  74.99
1066.0  48243.60  36556.02  75.77
1076.0  48081.60  36455.11  75.82
1086.0  48203.49  36193.05  75.08
1096.0  48223.42  35536.37  73.69
1106.0  48093.81  34629.49  72.00
1116.0  47754.46  33463.28  70.07
1126.0  47607.19  31805.14  66.81
1136.0  47567.70  28888.00  60.73
1146.0  47493.03  25565.87  53.83
1156.0  47323.93  23511.83  49.68
1166.0  47127.55  22711.22  48.19
1176.0  47007.28  22363.80  47.58
1186.0  47024.89  22146.17  47.09
1196.0  46427.12  21724.43  46.79
1206.0  45976.77  21535.86  46.84
1216.0  45638.29  21579.09  47.28
1226.0  45257.55  21716.36  47.98
1236.0  44986.64  21886.72  48.65
1246.0  44665.03  21965.28  49.18
1256.0  44348.18  21971.87  49.54
1266.0  44041.29  21830.36  49.57
1276.0  44122.33  21729.45  49.25
1286.0  44180.48  21414.73  48.47
1296.0  43940.70  20743.60  47.21
1306.0  43443.23  19698.12  45.34
1316.0  42852.87  18406.67  42.95
1326.0  42279.85  16967.43  40.13
1336.0  41687.98  15546.49  37.29
1346.0  41087.70  14261.32  34.71
1356.0  40136.77  13056.07  32.53
1366.0  39573.10  11986.25  30.29
1376.0  39448.29  10736.71  27.22
1386.0  39137.19  8887.15  22.71
1396.0  38705.17  7033.08  18.17
1406.0  38283.65  5734.61  14.98
1416.0  38247.12  5038.97  13.17
1426.0  38141.65  4685.68  12.28
1436.0  37993.55  4513.46  11.88
1446.0  37807.56  4429.28  11.72
1456.0  37564.66  4399.79  11.71
1466.0  37374.67  4446.08  11.90
1476.0  37032.66  4577.45  12.36
1486.0  36783.36  4834.24  13.14
1496.0  36446.95  5150.08  14.13
1506.0  36128.16  5344.82  14.79
1516.0  35703.58  5476.83  15.34
1526.0  35355.47  5692.97  16.10
1536.0  35069.58  5945.80  16.95
1546.0  34708.16  6148.73  17.72
1556.0  34457.36  6386.32  18.53
1566.0  34164.86  6603.04  19.33
1576.0  33714.29  6818.73  20.23
1586.0  33359.51  6957.19  20.86
1596.0  32961.11  7055.17  21.40
1606.0  32571.18  7159.00  21.98
1616.0  32156.21  7233.93  22.50
1626.0  31771.93  7296.93  22.97
1636.0  31326.06  7329.28  23.40
1646.0  30840.36  7323.88  23.75
1656.0  30342.57  7263.16  23.94
1666.0  29873.41  7176.50  24.02
1676.0  29453.55  7055.70  23.96
1686.0  29411.45  6962.86  23.67
1696.0  29052.01  6763.05  23.28
1706.0  28613.36  6492.33  22.69
1716.0  27944.47  6155.83  22.03
1726.0  27523.58  5866.85  21.32
1736.0  27167.55  5689.20  20.94
1746.0  26819.99  5512.13  20.55
1756.0  26352.17  5257.94  19.95
1766.0  25950.76  5046.26  19.45
1776.0  25733.96  4922.08  19.13
1786.0  25468.85  4804.28  18.86
1796.0  25144.26  4711.71  18.74
1806.0  24846.88  4652.76  18.73
1816.0  24492.53  4571.91  18.67
1826.0  24049.65  4470.56  18.59
1836.0  23447.37  4304.08  18.36
1846.0  23057.19  4133.34  17.93
1856.0  22644.78  3885.22  17.16
1866.0  22558.57  3495.69  15.50
1876.0  22322.63  2869.10  12.85
1886.0  22034.63  2309.10  10.48
1896.0  21514.98  1943.60  9.03
1906.0  20193.02  1104.30  5.47
1916.0  19960.67  1088.94  5.46
1926.0  19718.96  1061.17  5.38
1936.0  19579.29  1057.03  5.40
1946.0  19560.97  1098.28  5.61
1956.0  19388.55  1132.53  5.84
1966.0  19354.23  1187.09  6.13
1976.0  19201.04  1230.92  6.41
1986.0  18944.59  1271.40  6.71
1996.0  18673.01  1327.67  7.11
2006.0  18514.12  1391.39  7.52
2016.0  18215.64  1423.71  7.82
2026.0  17909.22  1450.65  8.10
2036.0  17652.06  1486.89  8.42
2046.0  17374.82  1526.00  8.78
2056.0  17064.26  1540.82  9.03
2066.0  16791.57  1558.68  9.28
2076.0  16545.25  1590.87  9.62
2086.0  16394.52  1626.34  9.92
2096.0  16100.21  1645.66  10.22
2106.0  15806.06  1660.67  10.51
2116.0  15736.14  1713.41  10.89
2126.0  15554.85  1732.45  11.14
2136.0  15258.51  1722.33  11.29
2146.0  14853.45  1725.00  11.61
2156.0  14604.38  1721.83  11.79
2166.0  14366.07  1712.47  11.92
2176.0  14128.44  1699.60  12.03
2186.0  13980.19  1704.68  12.19
2196.0  13852.76  1700.42  12.27
2206.0  13790.00  1682.37  12.20
2216.0  13655.61  1666.45  12.20
2226.0  13540.23  1619.33  11.96
2236.0  13404.39  1564.04  11.67
2246.0  13162.51  1511.58  11.48
2256.0  12980.74  1403.14  10.81
2266.0  12834.46  1352.02  10.53
2276.0  12713.52  1279.97  10.07
2286.0  12602.64  1219.05  9.67
2296.0  12501.79  1140.99  9.13
2306.0  12136.32  1044.19  8.60
2316.0  11736.06  989.29  8.43
2326.0  11720.29  1001.40  8.54
2336.0  11665.36  951.01  8.15
2346.0  11501.61  889.25  7.73
2356.0  11241.81  849.14  7.55
2366.0  11163.72  830.35  7.44
2376.0  10906.36  792.87  7.27
2386.0  10752.86  746.29  6.94
2396.0  10611.07  744.92  7.02
2406.0  10442.46  681.80  6.53
2416.0  10196.59  672.48  6.60
2426.0  10071.76  585.85  5.82
2436.0  9871.11  593.41  6.01
2446.0  9707.92  542.34  5.59
2456.0  9553.15  523.94  5.48
2466.0  9291.20  473.17  5.09
2476.0  9038.48  481.41  5.33
2486.0  8794.17  417.86  4.75
2496.0  8663.70  458.73  5.29
2506.0  9144.96  480.98  5.26
