/*** Spectra Vista SIG Data ***/
name= S1.sig
comm= SIG file reprocesed for matching/overlap;Averaged Ref/Tar of files: GD3S1,GD3S2,GD3S3
data=
346.4  598.78  183.88  30.71
347.9  627.50  178.42  28.43
349.5  677.04  182.52  26.96
351.1  739.44  195.31  26.41
352.6  790.63  196.29  24.83
354.2  841.03  202.02  24.02
355.7  912.59  215.30  23.59
357.3  974.37  230.01  23.61
358.8  992.58  230.67  23.24
360.4  1062.29  241.53  22.74
361.9  1117.88  239.13  21.39
363.5  1149.55  249.19  21.68
365.1  1196.29  253.47  21.19
366.6  1260.16  260.20  20.65
368.2  1349.72  256.07  18.97
369.7  1403.95  255.87  18.23
371.3  1488.21  270.86  18.20
372.8  1577.00  278.11  17.64
374.4  1638.71  292.81  17.87
375.9  1688.10  290.62  17.22
377.4  1740.09  299.99  17.24
379.0  1788.57  300.22  16.79
380.5  1855.73  304.67  16.42
382.1  1905.98  309.49  16.24
383.6  1973.16  309.96  15.71
385.2  2065.25  323.13  15.65
386.7  2149.76  329.50  15.33
388.3  2271.83  344.85  15.18
389.8  2363.45  357.95  15.15
391.3  2453.59  377.00  15.37
392.9  2526.36  396.59  15.70
394.4  2602.50  416.74  16.01
395.9  2690.98  435.94  16.20
397.5  2829.48  454.03  16.05
399.0  2963.31  459.59  15.51
400.6  3033.76  470.16  15.50
402.1  3072.78  466.38  15.18
403.6  3116.75  467.43  15.00
405.1  3199.00  477.87  14.94
406.7  3304.00  488.77  14.79
408.2  3412.53  507.87  14.88
409.7  3521.28  524.46  14.89
411.3  3642.17  544.76  14.96
412.8  3732.75  563.82  15.10
414.3  3845.02  584.14  15.19
415.8  3965.00  602.25  15.19
417.4  4085.95  621.88  15.22
418.9  4192.21  637.39  15.20
420.4  4267.16  650.38  15.24
421.9  4346.32  657.68  15.13
423.5  4413.15  666.25  15.10
425.0  4492.75  674.10  15.00
426.5  4594.55  681.69  14.84
428.0  4712.54  695.59  14.76
429.5  4856.53  709.09  14.60
431.1  5025.20  729.69  14.52
432.6  5198.44  755.80  14.54
434.1  5370.75  779.56  14.51
435.6  5520.56  800.12  14.49
437.1  5670.60  827.84  14.60
438.6  5806.58  847.63  14.60
440.1  5943.54  874.88  14.72
441.6  6091.61  902.79  14.82
443.1  6230.93  934.88  15.00
444.7  6356.12  970.51  15.27
446.2  6474.98  1006.89  15.55
447.7  6582.53  1046.46  15.90
449.2  6691.68  1078.06  16.11
450.7  6814.08  1105.45  16.22
452.2  6930.56  1139.57  16.44
453.7  7066.33  1175.24  16.63
455.2  7233.85  1220.12  16.87
456.7  7443.04  1265.56  17.00
458.2  7673.27  1318.20  17.18
459.7  7920.50  1366.87  17.26
461.2  8156.07  1416.06  17.36
462.7  8366.46  1461.30  17.47
464.2  8568.06  1508.23  17.60
465.7  8788.58  1554.20  17.68
467.2  8970.50  1589.03  17.71
468.7  9176.00  1640.67  17.88
470.2  9305.26  1685.84  18.12
471.7  9490.50  1729.08  18.22
473.2  9788.42  1763.36  18.01
474.6  10042.30  1792.87  17.85
476.1  10127.24  1825.39  18.02
477.6  10169.21  1853.43  18.23
479.1  10224.56  1877.77  18.37
480.6  10293.47  1900.38  18.46
482.1  10426.95  1930.47  18.51
483.6  10590.11  1973.06  18.63
485.1  10796.39  2025.41  18.76
486.6  11041.55  2089.91  18.93
488.0  11290.50  2160.60  19.14
489.5  11568.25  2242.54  19.39
491.0  11840.59  2334.20  19.71
492.5  12119.22  2433.94  20.08
494.0  12409.65  2546.24  20.52
495.4  12660.45  2658.26  21.00
496.9  12912.44  2780.72  21.54
498.4  13155.80  2911.61  22.13
499.9  13408.52  3059.50  22.82
501.4  13645.90  3210.80  23.53
502.8  13864.50  3370.23  24.31
504.3  14081.40  3537.84  25.12
505.8  14291.05  3716.22  26.00
507.2  14436.37  3888.68  26.94
508.7  14548.87  4057.56  27.89
510.2  14651.50  4225.40  28.84
511.6  14718.08  4386.46  29.80
513.1  14838.45  4566.85  30.78
514.6  14986.45  4749.22  31.69
516.0  15112.04  4936.16  32.66
517.5  15305.31  5147.67  33.63
519.0  15537.89  5377.89  34.61
520.5  15768.60  5602.90  35.53
521.9  16045.99  5847.30  36.44
523.4  16363.11  6102.47  37.29
524.8  16675.79  6356.06  38.12
526.3  17027.53  6617.28  38.86
527.8  17380.80  6872.87  39.54
529.2  17706.86  7109.41  40.15
530.7  18056.71  7355.05  40.73
532.1  18377.28  7579.06  41.24
533.6  18738.23  7818.36  41.72
535.0  19114.67  8052.89  42.13
536.5  19476.07  8283.33  42.53
538.0  19846.24  8520.43  42.93
539.4  20198.95  8746.10  43.30
540.9  20626.19  8984.89  43.56
542.3  20984.92  9193.59  43.81
543.8  21250.33  9365.37  44.07
545.2  21329.19  9468.94  44.39
546.6  21331.64  9535.79  44.70
548.1  21362.06  9605.78  44.97
549.5  21376.46  9668.28  45.23
551.0  21386.66  9718.53  45.44
552.4  21443.54  9779.72  45.61
553.9  21463.89  9826.92  45.78
555.3  21521.57  9876.62  45.89
556.8  21650.10  9955.19  45.98
558.2  21773.81  10029.49  46.06
559.6  21936.94  10116.94  46.12
561.1  22168.25  10234.47  46.17
562.5  22423.78  10357.44  46.19
564.0  22757.43  10513.63  46.20
565.4  23059.14  10655.52  46.21
566.8  23449.52  10820.28  46.14
568.3  23818.66  10966.67  46.04
569.7  24198.01  11117.80  45.95
571.1  24579.14  11247.41  45.76
572.6  24952.86  11374.78  45.59
574.0  25317.60  11491.15  45.39
575.4  25678.69  11602.92  45.19
576.9  26008.29  11700.67  44.99
578.3  26306.64  11786.72  44.81
579.7  26593.28  11875.46  44.66
581.1  26823.10  11940.59  44.52
582.6  27065.10  12015.14  44.39
584.0  27286.52  12071.70  44.24
585.4  27587.92  12161.95  44.08
586.8  27978.96  12284.05  43.90
588.3  28419.30  12423.84  43.72
589.7  28786.68  12539.59  43.56
591.1  29016.81  12608.49  43.45
592.5  29127.43  12630.33  43.36
594.0  29186.34  12627.14  43.26
595.4  29194.56  12603.09  43.17
596.8  29193.45  12578.14  43.09
598.2  29177.08  12547.47  43.00
599.6  29153.88  12505.97  42.90
601.0  29216.28  12487.44  42.74
602.4  29261.60  12463.31  42.59
603.9  29364.60  12451.80  42.40
605.3  29484.10  12442.90  42.20
606.7  29584.80  12415.62  41.97
608.1  29785.49  12427.09  41.72
609.5  30013.28  12441.54  41.45
610.9  30296.78  12473.61  41.17
612.3  30557.28  12490.23  40.87
613.7  30914.00  12537.09  40.55
615.1  31159.08  12526.70  40.20
616.5  31406.64  12523.82  39.88
617.9  31801.61  12601.53  39.63
619.3  32170.62  12687.26  39.44
620.7  32635.92  12827.14  39.30
622.1  33083.75  12870.02  38.90
623.5  33564.04  12854.42  38.30
624.9  34116.86  12846.27  37.65
626.3  34490.69  12785.94  37.07
627.7  34145.81  12560.02  36.78
629.1  33851.16  12428.58  36.72
630.5  33743.57  12420.61  36.81
631.9  33775.53  12487.43  36.97
633.3  33808.52  12561.83  37.16
634.7  33992.91  12678.53  37.30
636.1  34075.08  12706.43  37.29
637.5  34196.58  12725.63  37.21
638.9  34374.61  12764.29  37.13
640.2  34545.58  12781.78  37.00
641.6  34634.34  12758.62  36.84
643.0  34657.83  12678.20  36.58
644.4  34696.37  12602.97  36.32
645.8  34653.86  12464.41  35.97
647.2  34834.41  12383.60  35.55
648.5  34958.93  12297.26  35.18
649.9  34861.32  12152.03  34.86
651.3  34789.65  12051.73  34.64
652.7  34680.00  11923.63  34.38
654.1  34452.30  11547.98  33.52
655.5  34172.42  11095.25  32.47
656.8  33904.63  10659.51  31.44
658.2  34070.04  10388.39  30.49
659.6  34442.82  10192.00  29.59
660.9  34748.70  9982.01  28.73
662.3  35067.95  9757.77  27.83
663.7  35364.00  9528.68  26.94
665.0  35617.00  9305.37  26.13
666.4  35877.31  9100.80  25.37
667.8  36209.10  8950.21  24.72
669.1  36482.80  8798.89  24.12
670.5  36799.72  8697.71  23.64
671.9  36995.40  8606.01  23.26
673.2  37270.13  8572.37  23.00
674.6  37530.47  8571.13  22.84
676.0  37841.78  8623.40  22.79
677.3  38141.57  8715.20  22.85
678.7  38483.75  8871.81  23.05
680.0  38922.37  9125.33  23.44
681.4  39389.45  9489.13  24.09
682.8  39844.35  9965.94  25.01
684.1  40287.78  10589.05  26.28
685.5  40705.56  11332.35  27.84
686.8  41091.84  12199.14  29.69
688.2  41433.89  13165.24  31.77
689.5  41549.57  14170.01  34.10
690.9  41633.44  15224.58  36.57
692.2  41697.60  16302.24  39.10
693.6  41771.65  17409.16  41.68
694.9  41721.88  18433.45  44.18
696.2  41751.90  19442.74  46.57
697.6  41766.04  20386.91  48.81
698.9  41796.48  21293.27  50.95
700.3  41844.24  22144.54  52.92
701.6  41918.48  22940.26  54.73
703.0  41979.40  23670.37  56.39
704.3  41981.71  24276.02  57.83
705.6  41967.18  24834.35  59.18
707.0  41980.75  25346.89  60.38
708.3  41872.71  25731.51  61.45
709.6  41753.67  26081.73  62.47
711.0  41589.99  26334.26  63.32
712.3  41418.66  26570.84  64.15
713.6  41354.04  26827.21  64.87
714.9  41240.96  27043.08  65.57
716.3  41218.54  27282.05  66.19
717.6  41221.95  27522.04  66.77
718.9  41134.56  27655.99  67.23
720.2  40936.00  27684.48  67.63
721.6  40765.66  27725.37  68.01
722.9  40572.15  27752.97  68.40
724.2  40305.71  27716.11  68.76
725.5  40134.57  27728.82  69.09
726.8  39960.91  27706.86  69.33
728.1  39855.98  27714.46  69.54
729.5  39766.23  27718.02  69.70
730.8  39707.44  27732.52  69.84
732.1  39612.07  27720.50  69.98
733.4  39556.45  27728.52  70.10
734.7  39507.57  27714.36  70.15
736.0  39511.29  27757.31  70.25
737.3  39463.58  27767.39  70.36
738.6  39569.04  27889.41  70.48
739.9  39770.92  28098.75  70.65
741.2  39928.98  28246.58  70.74
742.5  40206.42  28507.61  70.90
743.8  40696.43  28912.93  71.05
745.1  41398.16  29479.13  71.21
746.4  42245.84  30097.51  71.24
747.7  43136.62  30694.60  71.16
749.0  43980.49  31257.87  71.07
750.3  44484.44  31525.13  70.87
751.6  44396.66  31427.15  70.79
752.9  43969.12  31135.23  70.81
754.2  43470.53  30824.53  70.91
755.4  42928.75  30514.17  71.08
756.7  42746.48  30451.66  71.24
758.0  42774.71  30544.89  71.41
759.3  43048.01  30811.71  71.58
760.6  43418.76  31162.21  71.77
761.9  43775.94  31473.97  71.90
763.1  43996.61  31646.26  71.93
764.4  44239.34  31861.78  72.02
765.7  44424.25  32024.85  72.09
767.0  44583.75  32147.97  72.11
768.2  44688.00  32265.74  72.20
769.5  44782.92  32346.53  72.23
770.8  44990.42  32502.06  72.24
772.0  45014.41  32547.94  72.31
773.3  45100.97  32632.48  72.35
774.6  45226.84  32747.07  72.41
775.8  45313.45  32810.27  72.41
777.1  45344.81  32838.39  72.42
778.4  45245.88  32799.24  72.49
779.6  45226.44  32802.66  72.53
780.9  45132.00  32773.87  72.62
782.1  44952.26  32679.64  72.70
783.4  44936.32  32689.56  72.75
784.6  44935.72  32735.01  72.85
785.9  45255.62  33027.19  72.98
787.1  45836.93  33499.04  73.08
788.4  46288.94  33766.68  72.95
789.6  46219.23  33576.63  72.65
790.9  45788.99  33169.19  72.44
792.1  45296.16  32801.73  72.42
793.4  44771.54  32464.55  72.51
794.6  44415.30  32208.55  72.52
795.8  44134.47  32011.32  72.53
797.1  43801.05  31812.87  72.63
798.3  43569.08  31681.28  72.72
799.5  43411.48  31597.80  72.79
800.8  43273.13  31491.64  72.77
802.0  43071.08  31374.37  72.84
803.2  42890.28  31223.11  72.80
804.5  42742.15  31133.95  72.84
805.7  42601.95  31012.59  72.80
806.9  42426.40  30887.80  72.80
808.1  42305.67  30832.84  72.88
809.4  42221.44  30776.81  72.89
810.6  42105.70  30724.03  72.97
811.8  42062.43  30710.59  73.01
813.0  42071.08  30730.49  73.04
814.2  42081.20  30759.15  73.09
815.4  42185.03  30806.15  73.03
816.6  42225.34  30815.86  72.98
817.9  42273.21  30801.69  72.86
819.1  42166.58  30694.68  72.79
820.3  42039.03  30533.78  72.63
821.5  41905.07  30422.23  72.60
822.7  41849.58  30335.64  72.49
823.9  41838.35  30300.31  72.42
825.1  41851.34  30252.94  72.29
826.3  41890.94  30226.40  72.15
827.5  41937.05  30201.46  72.02
828.7  42011.28  30171.39  71.82
829.9  42039.57  30135.06  71.68
831.0  42140.75  30160.66  71.57
832.2  42235.78  30184.31  71.47
833.4  42305.18  30197.98  71.38
834.6  42417.19  30240.31  71.29
835.8  42496.65  30274.97  71.24
837.0  42597.61  30349.91  71.25
838.1  42745.68  30469.89  71.28
839.3  42856.00  30537.34  71.26
840.5  42989.60  30630.26  71.25
841.7  43156.80  30770.20  71.30
842.9  43298.86  30909.96  71.39
844.0  43430.88  31005.78  71.39
845.2  43568.90  31132.63  71.46
846.4  43732.15  31220.85  71.39
847.5  43960.00  31384.33  71.39
848.7  44164.79  31527.47  71.39
849.9  44393.85  31652.08  71.30
851.0  44478.08  31658.49  71.18
852.2  44569.63  31699.79  71.12
853.3  44562.81  31661.64  71.05
854.5  44594.90  31647.53  70.97
855.6  44615.97  31664.74  70.97
856.8  44687.86  31709.56  70.96
857.9  44681.40  31705.44  70.96
859.1  44832.20  31823.36  70.98
860.2  44876.88  31836.88  70.94
861.4  44954.55  31873.79  70.90
862.5  45021.69  31913.18  70.88
863.7  45150.84  32000.20  70.87
864.8  45213.35  32023.30  70.83
865.9  45167.77  32007.89  70.86
867.1  45241.43  32025.99  70.79
868.2  45295.54  32034.11  70.72
869.3  45314.27  32031.58  70.69
870.5  45282.48  31978.35  70.62
871.6  45315.83  31993.24  70.60
872.7  45413.27  32070.73  70.62
873.9  45478.16  32056.79  70.49
875.0  45456.71  32015.96  70.43
876.1  45452.45  32003.12  70.41
877.2  45498.99  31996.55  70.32
878.3  45519.98  31957.17  70.20
879.4  45563.53  31936.95  70.09
880.5  45631.08  31951.97  70.02
881.7  45596.20  31891.43  69.94
882.8  45693.96  31867.46  69.74
883.9  45722.91  31835.85  69.63
885.0  45675.63  31754.09  69.52
886.1  45712.78  31652.38  69.24
887.2  45537.58  31482.08  69.13
888.3  45475.07  31356.55  68.95
889.4  45347.40  31208.43  68.82
890.5  45259.13  31099.07  68.71
891.6  45193.70  31015.14  68.63
892.7  45201.31  30962.66  68.50
893.8  45270.56  30974.10  68.42
894.9  45248.28  30948.57  68.40
896.0  45235.90  30865.16  68.23
897.0  45257.72  30836.86  68.14
898.1  45230.13  30817.17  68.13
899.2  45252.30  30767.21  67.99
900.3  45165.90  30658.66  67.88
901.4  45101.16  30524.04  67.68
902.4  45077.20  30531.91  67.73
903.5  45018.01  30419.88  67.57
904.6  45035.56  30369.96  67.44
905.7  45038.93  30320.52  67.32
906.7  44985.82  30255.83  67.26
907.8  45025.57  30243.35  67.17
908.9  44904.57  30115.83  67.07
909.9  44897.74  30053.21  66.94
911.0  44830.08  29938.05  66.78
912.1  44749.25  29834.15  66.67
913.1  44707.00  29697.30  66.43
914.2  44554.62  29567.41  66.36
915.2  44505.45  29496.14  66.28
916.3  44491.35  29405.30  66.09
917.3  44461.10  29315.10  65.93
918.4  44383.35  29136.45  65.65
919.4  44330.69  29001.11  65.42
920.5  44315.70  28928.82  65.28
921.5  44285.78  28832.69  65.11
922.6  44268.10  28690.53  64.81
923.6  44262.16  28614.49  64.65
924.7  44333.00  28491.44  64.27
925.7  44276.22  28374.65  64.09
926.7  44252.98  28278.10  63.90
927.8  44374.33  28157.67  63.45
928.8  44502.63  28089.14  63.12
929.9  44598.23  28017.18  62.82
930.9  44802.27  28023.49  62.55
931.9  45011.35  28012.06  62.23
932.9  45355.12  28082.02  61.92
934.0  45370.16  27975.92  61.66
935.0  45397.97  27853.05  61.35
936.0  45413.73  27679.40  60.95
937.0  45319.95  27519.87  60.72
938.1  45295.44  27350.86  60.38
939.1  45257.91  27173.17  60.04
940.1  45342.90  27104.98  59.78
941.1  45568.46  27092.16  59.45
942.1  45803.34  27092.92  59.15
943.1  45999.43  27056.84  58.82
944.1  46171.28  27038.04  58.56
945.2  46338.18  26917.98  58.09
946.2  46411.22  26783.41  57.71
947.2  46518.25  26681.79  57.36
948.2  46693.82  26598.07  56.96
949.2  46838.19  26492.84  56.56
950.2  46912.95  26329.23  56.12
951.2  46909.80  26179.05  55.81
952.2  47054.57  26082.19  55.43
953.2  47260.85  25982.13  54.98
954.2  47365.65  25864.68  54.61
955.2  47408.68  25745.50  54.31
956.2  47434.65  25589.14  53.95
957.2  47543.77  25473.75  53.58
958.2  47601.59  25406.00  53.37
959.2  47735.55  25366.83  53.14
960.1  47775.14  25290.02  52.94
961.1  47870.63  25293.10  52.84
962.1  47933.44  25260.50  52.70
963.1  48032.50  25256.13  52.58
964.1  48057.21  25230.81  52.50
965.1  48243.99  25292.77  52.43
966.1  48335.33  25268.01  52.28
967.0  48410.39  25332.68  52.33
968.0  48434.88  25338.58  52.31
969.0  48556.60  25324.76  52.16
970.0  48603.65  25368.66  52.19
971.0  48737.12  25371.10  52.06
971.9  48722.90  25391.17  52.11
972.9  48879.95  25348.89  51.86
973.9  48859.53  25379.74  51.94
974.9  49044.08  25365.03  51.72
975.8  49101.73  25375.85  51.68
976.8  49135.91  25379.89  51.65
977.8  49315.41  25410.60  51.53
978.8  49372.50  25454.65  51.56
979.7  49504.50  25527.21  51.57
981.4  50850.20  26273.24  51.67
985.3  50481.20  26206.52  51.91
989.3  50535.22  26447.85  52.34
993.3  50635.09  26788.24  52.90
997.2  50595.02  27030.38  53.42
1001.2  50545.04  27224.69  53.86
1005.2  50473.33  27424.46  54.33
1009.1  50535.74  27726.70  54.87
1013.1  50697.93  28116.11  55.46
1017.1  50843.90  28509.97  56.07
1021.0  50855.49  28814.37  56.66
1025.0  50816.26  29097.04  57.26
1029.0  50641.08  29287.93  57.83
1032.9  50496.42  29473.12  58.37
1036.9  50486.34  29747.02  58.92
1040.9  50614.23  30102.09  59.47
1044.8  50848.91  30513.34  60.01
1048.8  51055.33  30891.57  60.51
1052.7  51200.97  31203.20  60.94
1056.7  51265.76  31422.07  61.29
1060.7  51328.86  31586.27  61.54
1064.6  51364.29  31699.22  61.71
1068.6  51285.22  31699.23  61.81
1072.5  51205.93  31654.98  61.82
1076.5  51155.97  31593.62  61.76
1080.4  51154.95  31514.91  61.61
1084.4  51258.31  31443.89  61.34
1088.3  51367.47  31349.16  61.03
1092.3  51376.13  31151.24  60.63
1096.2  51342.58  30917.62  60.22
1100.2  51360.86  30704.81  59.78
1104.1  51244.60  30403.41  59.33
1108.1  51175.76  30135.81  58.89
1112.0  51059.75  29809.22  58.38
1116.0  50831.30  29368.76  57.78
1119.9  50653.13  28891.31  57.04
1123.9  50703.41  28463.51  56.14
1127.8  50649.60  27822.08  54.93
1131.8  50608.23  27007.82  53.37
1135.7  50617.81  26066.40  51.50
1139.6  50606.06  25026.92  49.45
1143.6  50555.26  24032.30  47.54
1147.5  50517.05  23200.17  45.93
1151.4  50365.69  22505.98  44.69
1155.4  50355.11  22085.96  43.86
1159.3  50376.78  21822.06  43.32
1163.2  50207.59  21561.42  42.94
1167.2  50161.80  21425.26  42.71
1171.1  50174.37  21350.37  42.55
1175.0  50101.08  21252.05  42.42
1179.0  50065.70  21165.00  42.27
1182.9  50165.17  21133.42  42.13
1186.8  50159.61  21058.70  41.98
1190.7  49934.95  20903.41  41.86
1194.7  49665.47  20744.94  41.77
1198.6  49438.62  20630.61  41.73
1202.5  49264.40  20577.78  41.77
1206.4  49122.14  20558.10  41.85
1210.3  49037.26  20562.99  41.93
1214.2  48930.30  20582.97  42.07
1218.2  48765.56  20593.52  42.23
1222.1  48630.48  20622.68  42.41
1226.0  48538.40  20681.88  42.61
1229.9  48450.48  20736.78  42.80
1233.8  48352.03  20768.96  42.95
1237.7  48317.50  20819.18  43.09
1241.6  48229.08  20855.16  43.24
1245.5  48061.09  20852.96  43.39
1249.4  47934.98  20844.20  43.48
1253.3  47803.87  20834.46  43.58
1257.2  47735.46  20847.23  43.67
1261.1  47624.11  20830.93  43.74
1265.0  47490.52  20785.01  43.77
1268.9  47304.07  20690.27  43.74
1272.8  47372.70  20687.20  43.67
1276.7  47590.81  20716.98  43.53
1280.6  47691.16  20672.21  43.35
1284.5  47615.01  20524.02  43.10
1288.4  47591.67  20367.95  42.80
1292.3  47467.75  20151.08  42.45
1296.2  47318.59  19900.86  42.06
1300.1  47148.87  19610.99  41.59
1303.9  46897.39  19254.25  41.06
1307.8  46639.44  18873.70  40.47
1311.7  46386.67  18472.10  39.82
1315.6  46123.85  18051.33  39.14
1319.5  45848.18  17598.68  38.38
1323.3  45606.50  17140.11  37.58
1327.2  45386.16  16688.31  36.77
1331.1  45132.53  16220.27  35.94
1335.0  44824.46  15733.14  35.10
1338.8  44600.56  15305.96  34.32
1342.7  44421.07  14923.47  33.60
1346.5  44042.02  14509.92  32.95
1350.4  43720.62  14146.58  32.36
1354.3  43279.60  13761.83  31.80
1358.1  42799.92  13355.99  31.21
1362.0  42533.76  12986.31  30.53
1365.8  42447.40  12662.59  29.83
1369.7  42569.31  12377.65  29.08
1373.5  42515.11  11979.13  28.18
1377.4  42239.08  11412.75  27.02
1381.2  42024.35  10732.92  25.54
1385.1  42007.68  10052.88  23.93
1389.0  41913.21  9378.62  22.38
1392.8  41686.58  8699.54  20.87
1396.6  41522.45  8083.28  19.47
1400.5  41297.26  7540.87  18.26
1404.3  41119.22  7098.60  17.26
1408.2  41089.83  6758.47  16.45
1412.0  41038.18  6492.60  15.82
1415.8  41063.56  6305.66  15.36
1419.6  41020.11  6148.68  14.99
1423.5  40984.07  6026.45  14.70
1427.3  40938.38  5938.52  14.51
1431.1  40915.35  5872.95  14.35
1434.9  40812.08  5802.91  14.22
1438.8  40755.58  5759.72  14.13
1442.6  40720.04  5735.38  14.08
1446.4  40579.53  5697.96  14.04
1450.2  40476.97  5676.83  14.02
1454.0  40349.16  5653.64  14.01
1457.8  40313.93  5653.71  14.02
1461.6  40291.52  5676.56  14.09
1465.4  40157.17  5699.33  14.19
1469.2  39958.10  5721.63  14.32
1473.0  39808.79  5767.64  14.49
1476.8  39739.71  5843.83  14.71
1480.7  39668.27  5926.92  14.94
1484.4  39532.92  6016.92  15.22
1488.2  39418.92  6121.04  15.53
1492.0  39281.08  6226.21  15.85
1495.8  39157.30  6332.09  16.17
1499.6  39041.55  6425.26  16.46
1503.4  38891.42  6492.58  16.69
1507.2  38758.78  6543.98  16.88
1510.9  38603.27  6586.17  17.06
1514.7  38431.80  6643.14  17.29
1518.5  38296.78  6734.23  17.58
1522.3  38148.01  6825.09  17.89
1526.0  38038.86  6913.63  18.18
1529.8  37977.87  7005.22  18.45
1533.6  37845.65  7083.16  18.72
1537.3  37710.11  7161.38  18.99
1541.1  37580.52  7248.25  19.29
1544.8  37449.60  7332.00  19.58
1548.6  37314.89  7413.13  19.87
1552.4  37219.38  7494.31  20.14
1556.1  37135.69  7542.50  20.31
1559.9  37030.39  7584.99  20.48
1563.6  36900.49  7644.00  20.72
1567.3  36782.10  7722.89  21.00
1571.1  36560.28  7775.33  21.27
1574.8  36404.14  7845.27  21.55
1578.6  36302.38  7919.40  21.82
1582.3  36157.52  7959.35  22.01
1586.0  36009.48  7986.67  22.18
1589.8  35863.84  8009.57  22.33
1593.5  35710.53  8034.69  22.50
1597.2  35575.62  8060.96  22.66
1600.9  35432.24  8078.09  22.80
1604.7  35280.85  8104.52  22.97
1608.4  35142.04  8138.70  23.16
1612.1  34980.47  8162.99  23.34
1615.8  34834.07  8182.00  23.49
1619.5  34752.20  8216.49  23.64
1623.2  34595.03  8233.35  23.80
1626.9  34406.93  8237.22  23.94
1630.6  34230.90  8250.59  24.10
1634.3  34081.71  8262.31  24.24
1638.0  33920.36  8243.21  24.30
1641.7  33748.10  8212.44  24.33
1645.4  33556.70  8186.68  24.40
1649.1  33353.05  8150.96  24.44
1652.8  33189.89  8115.14  24.45
1656.4  33018.59  8071.47  24.45
1660.1  32845.97  8032.38  24.45
1663.8  32642.92  7986.34  24.47
1667.5  32483.35  7949.80  24.47
1671.1  32351.26  7912.03  24.46
1674.8  32144.07  7855.21  24.44
1678.5  32080.00  7828.17  24.40
1682.1  32102.13  7813.48  24.34
1685.8  32123.16  7799.41  24.28
1689.5  32018.65  7749.07  24.20
1693.1  31881.24  7678.01  24.08
1696.8  31732.38  7605.55  23.97
1700.4  31582.94  7528.71  23.84
1704.0  31466.76  7454.27  23.69
1707.7  31189.67  7340.71  23.54
1711.3  30882.00  7212.08  23.35
1715.0  30659.79  7104.46  23.17
1718.6  30484.31  7009.90  23.00
1722.2  30333.58  6923.80  22.83
1725.9  30181.80  6831.20  22.63
1729.5  30037.98  6744.82  22.45
1733.1  29910.73  6686.81  22.36
1736.7  29788.38  6638.83  22.29
1740.3  29614.18  6572.68  22.19
1744.0  29528.30  6506.74  22.04
1747.5  29373.44  6415.85  21.84
1751.2  29138.63  6304.57  21.64
1754.8  28975.37  6205.77  21.42
1758.4  28834.48  6120.52  21.23
1762.0  28639.33  6028.24  21.05
1765.5  28498.38  5962.15  20.92
1769.1  28452.00  5931.20  20.85
1772.7  28378.96  5886.26  20.74
1776.3  28252.73  5830.97  20.64
1779.9  28119.54  5782.63  20.56
1783.5  28061.20  5748.64  20.49
1787.0  27938.82  5708.55  20.43
1790.6  27774.17  5666.49  20.40
1794.2  27666.21  5634.77  20.37
1797.8  27558.84  5610.99  20.36
1801.3  27465.68  5598.71  20.38
1804.9  27315.75  5568.50  20.39
1808.4  27221.13  5555.97  20.41
1812.0  27071.27  5531.36  20.43
1815.5  26907.62  5497.91  20.43
1819.1  26703.43  5453.80  20.42
1822.6  26545.43  5419.91  20.42
1826.2  26400.51  5392.45  20.43
1829.7  26207.46  5343.56  20.39
1833.2  25952.41  5284.95  20.36
1836.8  25712.51  5224.46  20.32
1840.3  25567.16  5168.40  20.21
1843.8  25454.03  5138.14  20.19
1847.3  25371.56  5132.75  20.23
1850.8  25264.51  5116.61  20.25
1854.3  25105.60  5068.07  20.19
1857.8  25027.60  4971.20  19.86
1861.3  25027.70  4828.87  19.29
1864.8  24948.54  4621.09  18.52
1868.3  24715.93  4316.41  17.46
1871.8  24529.92  3983.36  16.24
1875.3  24489.01  3710.23  15.15
1878.8  24485.84  3480.30  14.21
1882.3  24423.29  3263.75  13.36
1885.8  24245.59  3051.78  12.59
1889.3  24030.42  2869.30  11.94
1892.7  23852.68  2738.84  11.48
1896.2  23673.74  2672.22  11.29
1899.7  23427.69  2657.69  11.34
1901.7  21937.94  2155.39  9.82
1904.5  22143.94  2151.27  9.71
1907.2  22059.00  2102.67  9.53
1910.0  21927.95  2031.97  9.27
1912.7  21918.25  1989.66  9.08
1915.5  21816.04  1958.19  8.98
1918.2  21741.95  1932.30  8.89
1921.0  21589.30  1901.40  8.81
1923.7  21620.81  1922.07  8.89
1926.5  21581.93  1911.67  8.86
1929.2  21568.04  1860.93  8.63
1932.0  21551.20  1858.08  8.62
1934.7  21508.34  1860.37  8.65
1937.4  21385.99  1855.83  8.68
1940.2  21322.79  1872.68  8.78
1942.9  21412.44  1883.84  8.80
1945.6  21432.94  1877.43  8.76
1948.3  21347.13  1882.21  8.82
1951.1  21319.83  1880.25  8.82
1953.8  21321.00  1895.00  8.89
1956.5  21174.65  1910.81  9.02
1959.2  21255.91  1930.54  9.08
1961.9  21274.22  1940.97  9.12
1964.6  21161.18  1944.66  9.19
1967.3  21232.43  1973.82  9.30
1970.0  21063.36  1963.47  9.32
1972.8  20962.32  1975.82  9.43
1975.5  21019.32  2008.67  9.56
1978.2  20951.00  1998.25  9.54
1980.9  20833.51  2014.27  9.67
1983.5  20753.87  2030.99  9.79
1986.2  20730.84  2041.85  9.85
1988.9  20710.47  2073.86  10.01
1991.6  20560.54  2068.22  10.06
1994.3  20429.18  2068.05  10.12
1997.0  20463.02  2098.11  10.25
1999.7  20411.81  2105.89  10.32
2002.3  20392.69  2116.27  10.38
2005.0  20300.64  2145.99  10.57
2007.7  20215.73  2157.65  10.67
2010.4  20150.59  2152.67  10.68
2013.0  20054.41  2173.58  10.84
2015.7  19971.23  2181.46  10.92
2018.4  19850.99  2174.78  10.96
2021.0  19776.67  2199.61  11.12
2023.7  19665.12  2192.55  11.15
2026.4  19623.72  2191.37  11.17
2029.0  19549.52  2222.15  11.37
2031.7  19389.93  2222.35  11.46
2034.3  19392.75  2244.88  11.58
2037.0  19277.12  2250.12  11.67
2039.6  19203.81  2232.85  11.63
2042.3  19169.68  2245.73  11.72
2044.9  19085.22  2267.38  11.88
2047.5  19057.17  2268.31  11.90
2050.2  18939.20  2265.20  11.96
2052.8  18894.40  2286.67  12.10
2055.4  18768.37  2282.42  12.16
2058.1  18622.80  2271.73  12.20
2060.7  18569.98  2283.52  12.30
2063.3  18475.60  2290.64  12.40
2065.9  18427.79  2296.61  12.46
2068.6  18352.42  2300.33  12.53
2071.2  18299.61  2307.33  12.61
2073.8  18217.15  2303.03  12.64
2076.4  18153.52  2310.82  12.73
2079.0  18135.74  2326.68  12.83
2081.6  18151.63  2350.07  12.95
2084.2  18112.28  2365.50  13.06
2086.8  17948.60  2345.63  13.07
2089.4  17865.33  2345.92  13.13
2092.1  17782.00  2351.67  13.23
2094.7  17712.75  2350.40  13.27
2097.2  17685.67  2352.61  13.30
2099.8  17677.80  2371.27  13.41
2102.4  17557.58  2382.71  13.57
2105.0  17419.20  2374.05  13.63
2107.6  17352.05  2392.60  13.79
2110.2  17317.12  2408.79  13.91
2112.8  17308.85  2395.66  13.84
2115.3  17299.79  2419.99  13.99
2117.9  17305.54  2443.20  14.12
2120.5  17283.04  2422.37  14.02
2123.1  17169.75  2420.93  14.10
2125.6  17130.75  2440.28  14.25
2128.2  17041.98  2440.84  14.32
2130.8  16938.68  2445.30  14.44
2133.3  16907.73  2455.20  14.52
2135.9  16811.63  2422.95  14.41
2138.4  16669.29  2419.21  14.51
2141.0  16557.51  2424.13  14.64
2143.6  16519.94  2419.60  14.65
2146.1  16331.26  2410.41  14.76
2148.7  16166.35  2386.53  14.76
2151.2  16200.80  2396.53  14.79
2153.8  16223.65  2412.55  14.87
2156.3  16092.71  2378.42  14.78
2158.8  16012.97  2371.53  14.81
2161.4  15977.02  2389.13  14.95
2163.9  15879.72  2376.36  14.96
2166.4  15806.34  2371.25  15.00
2169.0  15776.77  2368.29  15.01
2171.5  15691.03  2353.51  15.00
2174.0  15580.08  2332.40  14.97
2176.5  15568.93  2337.18  15.01
2179.1  15528.15  2341.07  15.08
2181.6  15436.46  2318.76  15.02
2184.1  15393.84  2321.29  15.08
2186.6  15412.36  2333.88  15.14
2189.1  15330.96  2298.36  14.99
2191.6  15265.13  2296.47  15.04
2194.1  15289.63  2307.45  15.09
2196.6  15291.79  2292.75  14.99
2199.2  15355.64  2329.05  15.17
2201.7  15282.97  2310.18  15.12
2204.1  15217.08  2283.30  15.00
2206.6  15263.16  2326.28  15.24
2209.1  15196.78  2313.90  15.23
2211.6  15154.34  2291.61  15.12
2214.1  15142.04  2308.88  15.25
2216.6  15136.36  2287.86  15.11
2219.1  15121.17  2271.40  15.02
2221.6  15017.30  2276.38  15.16
2224.0  14973.30  2258.06  15.08
2226.5  14953.65  2248.76  15.04
2229.0  14990.65  2244.67  14.97
2231.5  14856.57  2203.53  14.83
2233.9  14819.93  2188.42  14.77
2236.4  14830.12  2183.47  14.72
2238.9  14725.00  2148.05  14.59
2241.3  14738.24  2148.03  14.57
2243.8  14703.26  2162.28  14.71
2246.2  14560.76  2112.78  14.51
2248.7  14543.49  2101.88  14.45
2251.2  14547.02  2112.55  14.52
2253.6  14461.44  2072.32  14.33
2256.1  14411.52  2062.08  14.31
2258.5  14448.51  2061.69  14.27
2260.9  14358.24  2004.43  13.96
2263.4  14286.28  1969.06  13.78
2265.8  14286.52  1975.90  13.83
2268.3  14242.68  1963.93  13.79
2270.7  14293.95  1942.20  13.59
2273.1  14208.68  1929.01  13.58
2275.6  14138.88  1918.72  13.57
2278.0  14162.68  1908.86  13.48
2280.4  14119.54  1897.23  13.44
2282.8  13992.20  1864.85  13.33
2285.3  14040.77  1853.44  13.20
2287.7  14128.29  1850.97  13.10
2290.1  13998.75  1806.67  12.91
2292.5  13976.47  1776.49  12.71
2294.9  14012.61  1784.83  12.74
2297.3  13889.96  1756.02  12.64
2299.7  13787.58  1709.63  12.40
2302.1  13749.17  1702.28  12.38
2304.5  13602.40  1682.99  12.37
2306.9  13496.56  1639.87  12.15
2309.3  13451.64  1627.42  12.10
2311.7  13329.30  1626.26  12.20
2314.1  13154.03  1597.65  12.15
2316.5  13124.14  1598.33  12.18
2318.9  13145.46  1613.46  12.27
2321.3  13101.23  1611.08  12.30
2323.7  13118.10  1622.62  12.37
2326.1  13081.38  1607.97  12.29
2328.4  13108.17  1605.64  12.25
2330.8  13202.52  1619.64  12.27
2333.2  13104.54  1589.68  12.13
2335.6  13023.78  1563.79  12.01
2337.9  13062.53  1587.26  12.15
2340.3  13002.24  1553.38  11.95
2342.7  12902.35  1490.96  11.56
2345.0  12884.39  1490.58  11.57
2347.4  12860.50  1480.42  11.51
2349.7  12661.22  1446.67  11.43
2352.1  12633.43  1458.03  11.54
2354.4  12658.59  1462.87  11.56
2356.8  12578.77  1438.89  11.44
2359.2  12527.67  1427.11  11.39
2361.5  12479.13  1412.27  11.32
2363.8  12494.29  1405.34  11.25
2366.2  12489.73  1412.27  11.31
2368.5  12451.10  1388.40  11.15
2370.9  12453.76  1374.80  11.04
2373.2  12415.30  1381.98  11.13
2375.5  12276.33  1354.49  11.03
2377.9  12211.78  1337.11  10.95
2380.2  12242.21  1366.86  11.17
2382.5  12139.99  1340.21  11.04
2384.8  12068.64  1306.93  10.83
2387.2  12086.52  1312.73  10.86
2389.5  12068.58  1268.55  10.51
2391.8  12016.43  1265.97  10.54
2394.1  11909.46  1300.35  10.92
2396.4  11863.59  1269.26  10.70
2398.7  11940.46  1242.27  10.40
2401.0  11823.50  1260.98  10.67
2403.3  11693.04  1240.02  10.60
2405.6  11741.09  1217.93  10.37
2407.9  11668.29  1234.13  10.58
2410.2  11575.79  1206.54  10.42
2412.5  11525.22  1177.25  10.21
2414.8  11512.67  1160.51  10.08
2417.1  11505.36  1159.66  10.08
2419.4  11477.63  1173.99  10.23
2421.7  11364.91  1151.21  10.13
2424.0  11316.90  1130.63  9.99
2426.2  11347.35  1116.37  9.84
2428.5  11281.78  1119.53  9.92
2430.8  11243.35  1124.52  10.00
2433.1  11179.50  1082.36  9.68
2435.4  11100.48  1072.38  9.66
2437.6  11066.91  1087.30  9.82
2439.9  10932.41  1040.65  9.52
2442.2  10967.11  1033.38  9.42
2444.4  10975.51  1052.94  9.59
2446.7  10909.12  1035.63  9.49
2448.9  10931.40  1042.21  9.53
2451.2  10853.16  1039.03  9.57
2453.4  10787.73  1008.46  9.35
2455.7  10721.98  1013.61  9.45
2457.9  10647.12  982.91  9.23
2460.2  10665.45  941.19  8.82
2462.4  10576.80  988.00  9.34
2464.7  10503.38  971.48  9.25
2466.9  10471.02  926.62  8.85
2469.2  10480.86  970.09  9.26
2471.4  10359.57  951.93  9.19
2473.6  10250.05  894.90  8.73
2475.9  10220.96  930.20  9.10
2478.1  10124.53  940.49  9.29
2480.3  10080.49  865.57  8.59
2482.5  10057.71  884.01  8.79
2484.8  9961.32  881.08  8.85
2487.0  9924.93  844.36  8.51
2489.2  9935.52  881.99  8.88
2491.4  9875.23  865.85  8.77
2493.6  9884.14  828.25  8.38
2495.8  9866.24  855.18  8.67
2498.0  9849.60  862.01  8.75
2500.2  9865.68  853.73  8.65
2502.4  10096.56  879.12  8.71
2504.6  10244.49  873.27  8.52
2506.8  10345.65  863.76  8.35
