/*** Spectra Vista SIG Data ***/
name= S1.sig
comm= Resampled spectral data SIG file reprocesed for matching/overlap;Averaged Ref/Tar of files: GD3S1,GD3S2,GD3S3
data=
346.0  598.78  183.88  30.71
356.0  924.17  218.06  23.59
366.0  1234.61  257.51  20.86
376.0  1691.57  291.24  17.22
386.0  2110.32  326.53  15.47
396.0  2699.64  437.07  16.19
406.0  3258.06  484.00  14.86
416.0  3980.12  604.70  15.19
426.0  4560.62  679.16  14.89
436.0  5560.57  807.51  14.52
446.0  6459.13  1002.04  15.51
456.0  7345.42  1244.35  16.94
466.0  8824.96  1561.17  17.69
476.0  10121.58  1823.22  18.01
486.0  10943.49  2064.11  18.86
496.0  12761.25  2707.24  21.21
506.0  14311.81  3740.86  26.14
516.0  15112.04  4936.16  32.66
526.0  16957.18  6565.04  38.72
536.0  19355.60  8206.52  42.40
546.0  21330.59  9507.14  44.57
556.0  21581.55  9913.29  45.93
566.0  23226.44  10726.13  46.18
576.0  25810.52  11642.02  45.11
586.0  27755.51  12214.28  44.01
596.0  29194.08  12592.40  43.13
606.0  29534.45  12429.26  42.08
616.0  31318.23  12524.85  39.99
626.0  34410.58  12798.87  37.19
636.0  34069.21  12704.44  37.29
646.0  34679.65  12452.87  35.91
656.0  34069.42  10927.66  32.07
666.0  35802.93  9159.25  25.58
676.0  37841.78  8623.40  22.79
686.0  40854.13  11665.73  28.55
696.0  41747.28  19287.45  46.20
706.0  41971.06  24980.80  59.52
716.0  41223.34  27230.84  66.06
726.0  40067.78  27720.37  69.18
736.0  39511.29  27757.31  70.25
746.0  41985.01  29907.23  71.23
756.0  42844.63  30485.32  71.15
766.0  44461.06  32053.26  72.09
776.0  45318.27  32814.60  72.41
786.0  45304.05  33066.50  72.99
796.0  44083.17  31980.79  72.55
806.0  42558.06  30981.39  72.80
816.0  42205.19  30811.01  73.00
826.0  41881.04  30233.03  72.19
836.0  42513.48  30287.46  71.24
846.0  43677.73  31191.44  71.41
856.0  44639.93  31679.68  70.97
866.0  45173.91  32009.40  70.86
876.0  45452.84  32004.29  70.41
886.0  45709.40  31661.62  69.27
896.0  45235.90  30865.16  68.23
906.0  45023.00  30301.11  67.30
916.0  44495.20  29430.07  66.14
926.0  44269.25  28345.69  64.03
936.0  45413.73  27679.40  60.95
946.0  46396.61  26810.33  57.79
956.0  47429.46  25620.41  54.02
966.0  48326.20  25270.49  52.29
976.0  49108.57  25376.66  51.67
986.0  50490.65  26248.75  51.99
996.0  50607.35  26955.88  53.26
1006.0  50486.13  27486.46  54.44
1016.0  50803.76  28401.66  55.90
1026.0  50772.47  29144.76  57.40
1036.0  50488.61  29685.39  58.80
1046.0  50910.83  30626.80  60.16
1056.0  51254.42  31383.77  61.23
1066.0  51336.62  31699.22  61.75
1076.0  51162.22  31601.29  61.77
1086.0  51303.09  31405.03  61.21
1096.0  51344.30  30929.60  60.24
1106.0  51211.90  30276.30  59.12
1116.0  50831.30  29368.76  57.78
1126.0  50674.44  28118.13  55.49
1136.0  50616.91  25986.43  51.34
1146.0  50531.75  23520.22  46.55
1156.0  50358.44  22045.36  43.78
1166.0  50175.54  21466.11  42.78
1176.0  50092.24  21230.29  42.38
1186.0  50160.75  21074.03  42.01
1196.0  49589.85  20706.83  41.76
1206.0  49136.73  20560.12  41.84
1216.0  48856.16  20587.72  42.14
1226.0  48538.40  20681.88  42.61
1236.0  48332.55  20797.29  43.03
1246.0  48044.92  20851.84  43.40
1256.0  47756.51  20843.30  43.64
1266.0  47442.71  20760.72  43.76
1276.0  47551.66  20711.64  43.56
1286.0  47606.03  20463.99  42.99
1296.0  47326.24  19913.69  42.08
1306.0  46758.50  19049.34  40.74
1316.0  46095.57  18004.90  39.06
1326.0  45453.96  16827.32  37.02
1336.0  44765.54  15620.73  34.89
1346.0  44091.89  14564.33  33.03
1356.0  43065.01  13580.27  31.53
1366.0  42453.65  12647.98  29.79
1376.0  42338.17  11616.07  27.44
1386.0  41985.88  9897.28  23.57
1396.0  41548.36  8180.58  19.69
1406.0  41106.41  6950.34  16.91
1416.0  41061.27  6297.40  15.34
1426.0  40954.01  5968.60  14.57
1436.0  40796.14  5790.73  14.19
1446.0  40594.32  5701.90  14.05
1456.0  40330.62  5653.68  14.02
1466.0  40125.74  5702.85  14.21
1476.0  39754.25  5827.79  14.66
1486.0  39484.92  6060.76  15.35
1496.0  39151.21  6336.99  16.19
1506.0  38800.67  6527.75  16.82
1516.0  38385.61  6674.30  17.39
1526.0  38038.86  6913.63  18.18
1536.0  37757.73  7133.90  18.89
1546.0  37407.06  7357.62  19.67
1556.0  37137.95  7541.20  20.31
1566.0  36823.70  7695.17  20.90
1576.0  36372.01  7868.68  21.63
1586.0  36009.48  7986.67  22.18
1596.0  35619.37  8052.44  22.61
1606.0  35232.08  8116.53  23.04
1616.0  34829.65  8183.86  23.50
1626.0  34452.68  8236.28  23.91
1636.0  34007.58  8253.53  24.27
1646.0  33523.68  8180.89  24.40
1656.0  33037.62  8076.32  24.45
1666.0  32548.04  7964.61  24.47
1676.0  32123.29  7846.44  24.43
1686.0  32117.51  7796.69  24.28
1696.0  31764.57  7621.22  23.99
1706.0  31316.98  7392.89  23.61
1716.0  30611.05  7078.19  23.12
1726.0  30177.81  6828.80  22.63
1736.0  29812.17  6648.16  22.30
1746.0  29439.81  6454.80  21.93
1756.0  28928.41  6177.35  21.35
1766.0  28491.94  5957.85  20.91
1776.0  28263.25  5835.58  20.65
1786.0  27973.79  5720.00  20.45
1796.0  27612.53  5622.88  20.36
1806.0  27286.01  5564.56  20.39
1816.0  26879.26  5491.78  20.43
1826.0  26408.56  5393.98  20.43
1836.0  25765.82  5237.90  20.33
1846.0  25402.19  5134.75  20.21
1856.0  25067.72  5021.02  20.03
1866.0  24868.79  4516.63  18.16
1876.0  24488.38  3664.25  14.96
1886.0  24233.30  3041.36  12.55
1896.0  23683.96  2676.03  11.30
1906.0  22096.75  2124.27  9.61
1916.0  21802.32  1953.40  8.96
1926.0  21588.87  1913.53  8.86
1936.0  21449.43  1858.18  8.66
1946.0  21420.23  1878.14  8.77
1956.0  21201.75  1907.88  9.00
1966.0  21198.12  1959.78  9.25
1976.0  21006.67  2006.74  9.55
1986.0  20732.55  2041.05  9.84
1996.0  20450.49  2086.98  10.21
2006.0  20269.19  2150.31  10.61
2016.0  19957.87  2180.72  10.93
2026.0  19629.85  2191.54  11.16
2036.0  19319.95  2248.18  11.64
2046.0  19073.35  2267.77  11.89
2056.0  18736.02  2280.04  12.17
2066.0  18425.00  2296.75  12.47
2076.0  18163.31  2309.62  12.72
2086.0  17998.96  2351.74  13.07
2096.0  17698.67  2351.55  13.29
2106.0  17393.37  2381.18  13.69
2116.0  17301.34  2426.24  14.02
2126.0  17117.10  2440.37  14.26
2136.0  16805.93  2422.80  14.42
2146.0  16338.81  2410.78  14.75
2156.0  16108.43  2382.52  14.79
2166.0  15818.08  2372.07  15.00
2176.0  15571.16  2336.22  15.00
2186.0  15407.91  2330.86  15.13
2196.0  15291.27  2296.28  15.02
2206.0  15252.10  2315.96  15.18
2216.0  15137.72  2292.91  15.15
2226.0  14957.58  2250.62  15.05
2236.0  14828.49  2184.26  14.73
2246.0  14572.63  2116.90  14.53
2256.0  14413.52  2062.49  14.31
2266.0  14283.01  1974.94  13.83
2276.0  14142.85  1917.08  13.56
2286.0  14066.30  1852.72  13.17
2296.0  13956.39  1771.63  12.69
2306.0  13536.25  1656.04  12.23
2316.0  13130.37  1598.19  12.17
2326.0  13082.91  1608.58  12.30
2336.0  13030.52  1567.87  12.03
2346.0  12874.44  1486.35  11.54
2356.0  12605.38  1446.88  11.48
2366.0  12490.11  1411.69  11.30
2376.0  12262.88  1350.87  11.02
2386.0  12077.58  1309.83  10.85
2396.0  11871.57  1274.67  10.74
2406.0  11728.43  1220.75  10.41
2416.0  11508.86  1160.07  10.08
2426.0  11344.58  1117.67  9.85
2436.0  11091.32  1076.45  9.71
2446.0  10929.32  1040.90  9.52
2456.0  10711.77  1009.42  9.42
2466.0  10484.26  944.97  9.01
2476.0  10216.57  930.67  9.11
2486.0  9941.47  861.05  8.66
2496.0  9864.73  855.80  8.68
2506.0  10308.86  867.22  8.41
