/*** Spectra Vista SIG Data ***/
name= P500CG.sig
comm= Averaged Ref/Tar of files: P_500[CG]1,P_500[CG]2,P_500[CG]3
data=
346.4  630.63  449.09  71.21
347.9  683.98  481.08  70.34
349.5  730.08  505.44  69.23
351.1  795.60  558.48  70.20
352.6  847.55  599.82  70.77
354.2  906.48  635.96  70.16
355.7  986.68  694.83  70.42
357.3  1040.25  754.76  72.56
358.8  1065.98  775.89  72.79
360.4  1143.19  844.20  73.85
361.9  1187.53  869.47  73.22
363.5  1239.58  914.10  73.74
365.1  1293.38  944.32  73.01
366.6  1353.38  1000.07  73.89
368.2  1426.94  1064.33  74.59
369.7  1498.64  1126.43  75.16
371.3  1600.16  1206.15  75.38
372.8  1673.28  1261.60  75.40
374.4  1748.85  1327.21  75.89
375.9  1797.33  1371.44  76.30
377.4  1870.19  1417.01  75.77
379.0  1934.96  1472.44  76.10
380.5  1988.07  1509.00  75.90
382.1  2033.04  1564.18  76.94
383.6  2120.58  1618.79  76.34
385.2  2208.25  1695.83  76.80
386.7  2301.38  1775.22  77.14
388.3  2426.73  1868.73  77.01
389.8  2519.91  1950.78  77.41
391.3  2626.26  2037.69  77.59
392.9  2697.06  2108.15  78.16
394.4  2771.65  2166.28  78.16
395.9  2873.10  2252.43  78.40
397.5  3029.74  2362.21  77.97
399.0  3151.80  2464.79  78.20
400.6  3234.69  2528.13  78.16
402.1  3274.02  2563.66  78.30
403.6  3322.94  2610.88  78.57
405.1  3409.22  2676.50  78.51
406.7  3528.00  2779.09  78.77
408.2  3644.19  2879.42  79.01
409.7  3754.24  2973.97  79.22
411.3  3867.08  3072.24  79.45
412.8  3976.86  3160.00  79.46
414.3  4099.56  3259.26  79.50
415.8  4220.00  3363.33  79.70
417.4  4361.72  3471.16  79.58
418.9  4457.86  3555.49  79.76
420.4  4558.78  3630.75  79.64
421.9  4636.72  3696.95  79.73
423.5  4707.36  3755.46  79.78
425.0  4796.17  3819.25  79.63
426.5  4895.55  3902.25  79.71
428.0  5034.78  4002.38  79.49
429.5  5188.33  4128.41  79.57
431.1  5363.82  4268.61  79.58
432.6  5552.18  4420.47  79.62
434.1  5732.65  4568.03  79.68
435.6  5890.14  4693.67  79.69
437.1  6052.80  4821.70  79.66
438.6  6197.61  4933.46  79.60
440.1  6347.97  5050.09  79.55
441.6  6494.11  5169.12  79.60
443.1  6656.18  5289.98  79.47
444.7  6793.83  5408.76  79.61
446.2  6914.93  5505.98  79.62
447.7  7037.77  5603.03  79.61
449.2  7173.36  5700.96  79.47
450.7  7292.48  5781.01  79.27
452.2  7429.67  5887.80  79.25
453.7  7576.65  6005.95  79.27
455.2  7765.17  6160.44  79.33
456.7  7990.40  6343.63  79.39
458.2  8239.46  6546.72  79.46
459.7  8510.25  6762.00  79.46
461.2  8764.99  6964.69  79.46
462.7  8985.80  7146.28  79.53
464.2  9215.88  7329.76  79.53
465.7  9451.34  7518.14  79.55
467.2  9653.88  7672.41  79.47
468.7  9860.00  7852.00  79.63
470.2  10000.52  7982.19  79.82
471.7  10219.63  8152.59  79.77
473.2  10551.31  8381.08  79.43
474.6  10836.41  8556.37  78.96
476.1  10924.36  8626.28  78.96
477.6  10960.04  8682.17  79.22
479.1  11023.85  8744.26  79.32
480.6  11109.78  8812.29  79.32
482.1  11255.33  8930.00  79.34
483.6  11435.12  9072.98  79.34
485.1  11655.27  9249.74  79.36
486.6  11911.43  9461.59  79.43
488.0  12195.63  9682.29  79.39
489.5  12483.95  9915.56  79.43
491.0  12777.45  10156.07  79.48
492.5  13078.26  10396.08  79.49
494.0  13380.84  10643.31  79.54
495.4  13642.20  10857.00  79.58
496.9  13904.42  11078.78  79.68
498.4  14171.30  11293.49  79.69
499.9  14439.02  11511.83  79.73
501.4  14680.69  11718.84  79.82
502.8  14919.13  11911.20  79.84
504.3  15134.40  12092.40  79.90
505.8  15347.35  12281.41  80.02
507.2  15489.44  12408.43  80.11
508.7  15598.86  12511.04  80.20
510.2  15690.64  12602.09  80.32
511.6  15752.95  12661.55  80.38
513.1  15872.56  12767.74  80.44
514.6  16004.87  12891.49  80.55
516.0  16136.97  13006.31  80.60
517.5  16322.55  13177.41  80.73
519.0  16545.71  13380.36  80.87
520.5  16764.08  13585.76  81.04
521.9  17039.29  13834.71  81.19
523.4  17355.20  14114.16  81.33
524.8  17660.07  14403.43  81.56
526.3  18013.36  14711.89  81.67
527.8  18358.47  15025.02  81.84
529.2  18674.36  15315.53  82.01
530.7  19031.03  15625.57  82.11
532.1  19344.85  15910.13  82.24
533.6  19707.77  16226.80  82.34
535.0  20079.68  16562.12  82.48
536.5  20419.92  16882.70  82.68
538.0  20792.00  17215.65  82.80
539.4  21127.02  17524.67  82.95
540.9  21551.03  17877.63  82.95
542.3  21923.06  18186.12  82.95
543.8  22174.34  18407.67  83.01
545.2  22231.45  18477.94  83.12
546.6  22222.15  18501.43  83.26
548.1  22214.03  18534.15  83.43
549.5  22226.58  18552.73  83.47
551.0  22212.49  18571.07  83.61
552.4  22245.44  18616.23  83.69
553.9  22258.65  18647.03  83.77
555.3  22290.26  18697.77  83.88
556.8  22401.11  18809.70  83.97
558.2  22512.94  18932.07  84.09
559.6  22672.30  19081.42  84.16
561.1  22889.75  19294.17  84.29
562.5  23127.28  19525.93  84.43
564.0  23454.83  19825.18  84.52
565.4  23755.76  20105.99  84.64
566.8  24132.47  20458.67  84.78
568.3  24488.54  20793.17  84.91
569.7  24876.90  21145.37  85.00
571.1  25245.29  21486.38  85.11
572.6  25607.34  21832.74  85.26
574.0  25974.30  22172.15  85.36
575.4  26319.94  22497.19  85.48
576.9  26649.32  22807.78  85.58
578.3  26932.26  23090.93  85.74
579.7  27212.85  23362.49  85.85
581.1  27427.97  23581.01  85.97
582.6  27669.82  23818.98  86.08
584.0  27882.24  24024.55  86.16
585.4  28177.77  24298.63  86.23
586.8  28576.31  24643.75  86.24
588.3  29013.66  25017.72  86.23
589.7  29383.38  25343.76  86.25
591.1  29621.38  25560.95  86.29
592.5  29726.99  25682.39  86.39
594.0  29770.20  25741.64  86.47
595.4  29770.08  25758.15  86.52
596.8  29766.17  25775.75  86.59
598.2  29744.67  25775.76  86.66
599.6  29714.85  25764.60  86.71
601.0  29771.81  25820.21  86.73
602.4  29816.58  25866.58  86.75
603.9  29909.17  25962.31  86.80
605.3  30024.63  26076.21  86.85
606.7  30119.40  26170.20  86.89
608.1  30316.50  26360.52  86.95
609.5  30539.01  26574.58  87.02
610.9  30814.99  26837.56  87.09
612.3  31075.20  27077.92  87.14
613.7  31428.96  27400.03  87.18
615.1  31662.90  27624.24  87.24
616.5  31902.59  27854.24  87.31
617.9  32288.77  28226.44  87.42
619.3  32666.57  28567.93  87.45
620.7  33128.50  28987.64  87.50
622.1  33560.89  29466.71  87.80
623.5  34032.77  30007.01  88.17
624.9  34565.21  30518.43  88.29
626.3  34922.45  30840.64  88.31
627.7  34564.35  30545.27  88.37
629.1  34256.15  30310.70  88.48
630.5  34133.81  30233.44  88.57
631.9  34173.45  30206.69  88.39
633.3  34221.59  30231.39  88.34
634.7  34406.41  30405.65  88.37
636.1  34488.04  30459.63  88.32
637.5  34613.12  30622.19  88.47
638.9  34796.83  30878.05  88.74
640.2  34954.01  31052.80  88.84
641.6  35055.54  31158.66  88.88
643.0  35067.41  31187.87  88.94
644.4  35115.49  31220.42  88.91
645.8  35070.53  31096.83  88.67
647.2  35256.78  31164.81  88.39
648.5  35391.08  31230.38  88.24
649.9  35282.13  31102.76  88.15
651.3  35212.95  31067.50  88.23
652.7  35080.35  31024.15  88.44
654.1  34845.90  30882.84  88.63
655.5  34548.82  30682.09  88.81
656.8  34274.04  30471.07  88.90
658.2  34439.22  30641.21  88.97
659.6  34825.18  31027.65  89.10
660.9  35139.54  31329.16  89.16
662.3  35443.63  31623.13  89.22
663.7  35746.20  31902.50  89.25
665.0  36012.67  32153.80  89.28
666.4  36257.27  32386.77  89.32
667.8  36589.28  32703.27  89.38
669.1  36867.26  32961.31  89.41
670.5  37195.97  33251.90  89.40
671.9  37380.96  33427.44  89.42
673.2  37662.77  33696.83  89.47
674.6  37922.97  33937.64  89.49
676.0  38225.19  34226.65  89.54
677.3  38533.34  34499.07  89.53
678.7  38864.13  34807.50  89.56
680.0  39305.58  35203.63  89.56
681.4  39779.73  35634.49  89.58
682.8  40233.38  36042.07  89.58
684.1  40676.22  36461.10  89.64
685.5  41092.36  36843.14  89.66
686.8  41490.36  37195.20  89.65
688.2  41836.80  37509.97  89.66
689.5  41943.86  37606.67  89.66
690.9  42017.36  37685.78  89.69
692.2  42092.85  37738.30  89.65
693.6  42157.83  37781.95  89.62
694.9  42109.57  37741.40  89.63
696.2  42121.91  37764.56  89.66
697.6  42142.24  37776.75  89.64
698.9  42160.80  37805.68  89.67
700.3  42212.70  37844.58  89.65
701.6  42275.21  37913.37  89.68
703.0  42340.09  37969.91  89.68
704.3  42340.84  37980.69  89.70
705.6  42307.56  37953.30  89.71
707.0  42304.76  37950.79  89.71
708.3  42205.58  37875.49  89.74
709.6  42077.70  37769.76  89.76
711.0  41902.11  37629.73  89.80
712.3  41730.30  37477.08  89.81
713.6  41662.74  37423.26  89.82
714.9  41546.10  37322.56  89.83
716.3  41517.29  37308.90  89.86
717.6  41513.92  37335.04  89.93
718.9  41427.26  37245.00  89.90
720.2  41191.85  37082.20  90.02
721.6  41046.72  36936.47  89.99
722.9  40841.06  36757.25  90.00
724.2  40588.46  36545.36  90.04
725.5  40381.61  36384.04  90.10
726.8  40196.01  36220.12  90.11
728.1  40102.16  36154.89  90.16
729.5  40009.55  36082.33  90.18
730.8  39945.60  36035.54  90.21
732.1  39850.55  35954.47  90.22
733.4  39793.17  35930.33  90.29
734.7  39729.39  35880.99  90.31
736.0  39732.49  35905.55  90.37
737.3  39673.91  35870.98  90.41
738.6  39788.18  35985.22  90.44
739.9  39986.32  36176.43  90.47
741.2  40139.19  36334.48  90.52
742.5  40421.44  36613.40  90.58
743.8  40915.88  37060.10  90.58
745.1  41627.68  37729.87  90.64
746.4  42484.72  38534.26  90.70
747.7  43357.88  39347.18  90.75
749.0  44203.37  40111.44  90.74
750.3  44693.01  40549.99  90.73
751.6  44609.70  40469.93  90.72
752.9  44168.69  40037.53  90.65
754.2  43669.08  39585.14  90.65
755.4  43127.05  39109.79  90.69
756.7  42940.36  38951.92  90.71
758.0  42963.66  38985.65  90.74
759.3  43246.58  39268.97  90.80
760.6  43631.28  39621.12  90.81
761.9  43987.93  39938.29  90.79
763.1  44205.00  40149.72  90.83
764.4  44447.50  40394.20  90.88
765.7  44632.25  40552.42  90.86
767.0  44781.90  40707.71  90.90
768.2  44909.76  40836.32  90.93
769.5  44994.81  40909.75  90.92
770.8  45181.96  41105.11  90.98
772.0  45202.30  41145.64  91.03
773.3  45281.34  41230.12  91.05
774.6  45399.45  41331.54  91.04
775.8  45492.85  41430.19  91.07
777.1  45515.93  41456.12  91.08
778.4  45431.52  41396.43  91.12
779.6  45395.43  41371.11  91.13
780.9  45316.00  41312.00  91.16
782.1  45111.08  41151.26  91.22
783.4  45111.04  41154.88  91.23
784.6  45106.92  41157.91  91.25
785.9  45393.88  41446.78  91.30
787.1  45996.98  41994.04  91.30
788.4  46441.69  42427.42  91.36
789.6  46399.50  42375.13  91.33
790.9  45932.90  41951.32  91.33
792.1  45403.52  41462.11  91.32
793.4  44896.14  41022.20  91.37
794.6  44551.89  40711.67  91.38
795.8  44231.81  40435.74  91.42
797.1  43906.28  40150.20  91.45
798.3  43659.83  39933.03  91.46
799.5  43520.02  39813.08  91.48
800.8  43336.38  39677.20  91.56
802.0  43170.52  39528.91  91.56
803.2  42985.20  39376.73  91.61
804.5  42855.21  39238.72  91.56
805.7  42692.40  39092.49  91.57
806.9  42512.38  38945.17  91.61
808.1  42409.86  38847.77  91.60
809.4  42316.73  38771.43  91.62
810.6  42192.15  38682.58  91.68
811.8  42172.17  38645.25  91.64
813.0  42163.23  38646.18  91.66
814.2  42178.96  38678.40  91.70
815.4  42279.13  38770.77  91.70
816.6  42301.14  38790.65  91.70
817.9  42349.13  38829.92  91.69
819.1  42261.23  38756.02  91.71
820.3  42104.76  38621.07  91.73
821.5  41970.20  38510.30  91.76
822.7  41937.17  38439.72  91.66
823.9  41911.59  38443.37  91.72
825.1  41906.00  38447.24  91.75
826.3  41927.28  38485.58  91.79
827.5  41996.16  38535.52  91.76
828.7  42070.56  38582.16  91.71
829.9  42094.44  38637.63  91.79
831.0  42223.46  38711.34  91.68
832.2  42314.37  38793.56  91.68
833.4  42402.89  38866.98  91.66
834.6  42482.81  38950.00  91.68
835.8  42572.25  39036.38  91.69
837.0  42673.89  39109.39  91.65
838.1  42851.66  39252.99  91.60
839.3  42953.40  39338.24  91.58
840.5  43102.99  39441.64  91.51
841.7  43251.71  39563.73  91.47
842.9  43400.31  39682.17  91.43
844.0  43549.44  39789.73  91.37
845.2  43705.60  39928.96  91.36
846.4  43839.60  40046.61  91.35
847.5  44086.39  40228.90  91.25
848.7  44310.84  40414.17  91.21
849.9  44519.86  40590.79  91.17
851.0  44600.35  40652.70  91.15
852.2  44693.32  40717.57  91.10
853.3  44699.49  40702.17  91.06
854.5  44750.58  40715.00  90.98
855.6  44778.78  40716.57  90.93
856.8  44851.95  40753.69  90.86
857.9  44871.50  40754.55  90.83
859.1  45012.00  40864.20  90.79
860.2  45071.56  40874.43  90.69
861.4  45164.68  40904.82  90.57
862.5  45221.87  40925.48  90.50
863.7  45380.27  41010.27  90.37
864.8  45412.85  41021.63  90.33
865.9  45403.93  40964.07  90.22
867.1  45474.25  40970.87  90.10
868.2  45524.97  40973.40  90.00
869.3  45589.41  40984.85  89.90
870.5  45539.97  40948.06  89.92
871.6  45562.59  40980.69  89.94
872.7  45700.60  41081.18  89.89
873.9  45747.35  41153.67  89.96
875.0  45745.04  41172.31  90.00
876.1  45783.66  41185.27  89.96
877.2  45820.13  41230.28  89.98
878.3  45822.65  41261.36  90.05
879.4  45871.99  41304.55  90.04
880.5  45962.28  41361.36  89.99
881.7  45908.85  41331.77  90.03
882.8  46012.72  41383.59  89.94
883.9  46073.21  41431.73  89.93
885.0  46039.40  41363.60  89.84
886.1  46025.94  41352.36  89.85
887.2  45905.76  41194.25  89.74
888.3  45807.80  41098.72  89.72
889.4  45707.30  40968.62  89.63
890.5  45592.32  40894.71  89.70
891.6  45545.58  40835.84  89.66
892.7  45554.16  40792.16  89.55
893.8  45579.45  40794.68  89.50
894.9  45613.48  40762.41  89.36
896.0  45529.58  40745.04  89.49
897.0  45627.02  40764.57  89.34
898.1  45583.05  40741.17  89.38
899.2  45607.22  40750.42  89.35
900.3  45541.50  40658.70  89.28
901.4  45412.27  40553.96  89.30
902.4  45437.06  40556.85  89.26
903.5  45388.81  40501.95  89.23
904.6  45388.82  40519.59  89.27
905.7  45374.76  40519.69  89.30
906.7  45323.04  40476.64  89.31
907.8  45383.91  40531.73  89.31
908.9  45302.99  40463.67  89.32
909.9  45307.76  40433.02  89.24
911.0  45202.77  40390.56  89.35
912.1  45152.49  40320.22  89.30
913.1  45072.56  40241.24  89.28
914.2  44921.94  40130.26  89.33
915.2  44915.04  40093.20  89.26
916.3  44853.15  40119.60  89.45
917.3  44875.31  40086.72  89.33
918.4  44790.35  39994.53  89.29
919.4  44699.60  39965.25  89.41
920.5  44708.24  39942.67  89.34
921.5  44702.98  39974.71  89.42
922.6  44636.74  39893.60  89.37
923.6  44687.86  39888.09  89.26
924.7  44720.00  39968.50  89.38
925.7  44710.62  39921.36  89.29
926.7  44757.60  39967.37  89.30
927.8  44773.30  40037.38  89.42
928.8  44894.28  40127.34  89.38
929.9  45005.21  40230.73  89.39
930.9  45213.30  40398.92  89.35
931.9  45414.99  40586.71  89.37
932.9  45762.26  40853.34  89.27
934.0  45803.71  40921.42  89.34
935.0  45810.36  40936.34  89.36
936.0  45840.15  40904.73  89.23
937.0  45795.75  40879.15  89.26
938.1  45737.41  40851.90  89.32
939.1  45690.54  40795.41  89.29
940.1  45792.08  40863.24  89.24
941.1  45974.44  41073.95  89.34
942.1  46240.75  41312.57  89.34
943.1  46430.63  41446.41  89.27
944.1  46685.58  41675.44  89.27
945.2  46780.86  41763.82  89.28
946.2  46886.15  41855.41  89.27
947.2  46973.00  41930.63  89.27
948.2  47156.13  42057.07  89.19
949.2  47321.63  42155.75  89.08
950.2  47306.35  42201.52  89.21
951.2  47423.88  42311.64  89.22
952.2  47533.98  42434.83  89.27
953.2  47748.84  42607.72  89.23
954.2  47923.43  42717.53  89.14
955.2  47900.28  42799.92  89.35
956.2  47872.99  42785.12  89.37
957.2  47942.90  42881.99  89.44
958.2  48058.20  42932.21  89.33
959.2  48218.40  43051.35  89.28
960.1  48234.68  43060.60  89.27
961.1  48358.04  43153.19  89.24
962.1  48485.63  43225.00  89.15
963.1  48452.08  43283.37  89.33
964.1  48561.50  43400.28  89.37
965.1  48761.92  43518.70  89.25
966.1  48787.80  43509.01  89.18
967.0  48997.06  43636.11  89.06
968.0  48996.14  43674.54  89.14
969.0  49091.60  43834.33  89.29
970.0  49111.31  43835.99  89.26
971.0  49170.03  43868.72  89.22
971.9  49289.72  43936.43  89.14
972.9  49420.88  44011.63  89.05
973.9  49398.70  44101.09  89.28
974.9  49421.14  44232.14  89.50
975.8  49584.23  44361.85  89.47
976.8  49645.86  44456.30  89.55
977.8  49761.42  44536.78  89.50
978.8  49883.25  44650.90  89.51
979.7  50017.88  44737.40  89.44
980.7  50024.37  44881.43  89.72
981.7  50216.51  45057.18  89.73
982.6  50458.51  45305.44  89.79
983.6  51132.02  45718.67  89.41
984.6  51562.39  46249.17  89.70
985.5  52257.60  46802.64  89.56
986.5  53039.20  47479.70  89.52
987.5  54168.11  48546.60  89.62
988.4  55057.20  49224.27  89.41
989.4  56551.39  50642.41  89.55
990.4  58242.03  51770.69  88.89
991.3  59136.61  53285.44  90.11
992.3  60254.81  54255.42  90.04
993.2  62830.60  56173.55  89.40
994.2  63759.15  57518.17  90.21
995.2  64907.22  58565.71  90.23
996.1  65710.99  60209.60  91.63
997.1  66771.58  59388.70  88.94
998.0  65779.20  60297.60  91.67
999.0  67569.18  60222.08  89.13
1000.0  65627.63  59252.37  90.29
1000.9  66106.32  60203.97  91.07
1001.9  66896.78  60815.25  90.91
1002.8  66066.52  59794.38  90.51
1003.8  66771.11  59352.10  88.89
1004.8  64803.12  59326.80  91.55
961.5  59942.22  47728.19  79.62
965.5  58683.65  47026.53  80.14
969.5  56453.82  45841.88  81.20
973.4  54183.76  44491.99  82.11
977.4  52184.81  43374.13  83.12
981.4  51194.56  42968.23  83.93
985.3  50809.00  42933.06  84.50
989.3  50771.60  43086.09  84.86
993.3  50798.35  43282.95  85.21
997.2  50697.53  43329.16  85.47
1001.2  50579.49  43271.50  85.55
1005.2  50486.54  43185.82  85.54
1009.1  50560.95  43242.22  85.52
1013.1  50727.98  43395.00  85.54
1017.1  50849.68  43525.15  85.60
1021.0  50849.88  43545.83  85.64
1025.0  50810.76  43531.92  85.67
1029.0  50630.25  43366.93  85.65
1032.9  50480.43  43194.32  85.57
1036.9  50465.40  43136.40  85.48
1040.9  50583.57  43186.24  85.38
1044.8  50808.96  43321.29  85.26
1048.8  51011.12  43451.55  85.18
1052.7  51152.74  43554.91  85.15
1056.7  51218.34  43590.04  85.11
1060.7  51244.53  43606.42  85.09
1064.6  51271.85  43616.27  85.07
1068.6  51212.40  43530.32  85.00
1072.5  51129.80  43451.53  84.98
1076.5  51067.99  43416.66  85.02
1080.4  51059.78  43414.30  85.03
1084.4  51173.05  43489.71  84.99
1088.3  51270.71  43564.89  84.97
1092.3  51246.52  43507.49  84.90
1096.2  51213.59  43397.84  84.74
1100.2  51236.75  43268.88  84.45
1104.1  51113.59  42909.21  83.95
1108.1  51042.38  42449.08  83.16
1112.0  50923.58  41913.66  82.31
1116.0  50680.63  41431.61  81.75
1119.9  50469.69  41055.66  81.35
1123.9  50510.21  40733.00  80.64
1127.8  50453.76  40090.88  79.46
1131.8  50410.11  39438.58  78.24
1135.7  50431.75  39177.45  77.68
1139.6  50412.72  39353.11  78.06
1143.6  50359.32  39764.96  78.96
1147.5  50310.97  40174.09  79.85
1151.4  50143.03  40327.44  80.42
1155.4  50134.85  40432.39  80.65
1159.3  50144.08  40397.17  80.56
1163.2  49963.74  40111.80  80.28
1167.2  49935.24  39911.14  79.93
1171.1  49953.49  39776.74  79.63
1175.0  49867.99  39631.61  79.47
1179.0  49819.26  39601.79  79.49
1182.9  49917.95  39794.62  79.72
1186.8  49905.20  40006.64  80.17
1190.7  49670.39  40093.00  80.72
1194.7  49404.69  40122.26  81.21
1198.6  49164.89  40125.86  81.61
1202.5  49001.90  40112.46  81.86
1206.4  48884.92  40067.60  81.96
1210.3  48777.95  40009.11  82.02
1214.2  48660.86  39922.03  82.04
1218.2  48519.81  39797.76  82.02
1222.1  48391.40  39702.83  82.05
1226.0  48286.77  39674.42  82.16
1229.9  48199.26  39681.10  82.33
1233.8  48101.55  39677.08  82.49
1237.7  48042.85  39676.70  82.59
1241.6  47954.67  39602.45  82.58
1245.5  47801.28  39425.06  82.48
1249.4  47677.41  39241.49  82.31
1253.3  47548.54  39032.45  82.09
1257.2  47470.59  38855.45  81.85
1261.1  47367.50  38675.88  81.65
1265.0  47247.17  38512.72  81.51
1268.9  47057.34  38330.80  81.46
1272.8  47119.05  38361.00  81.41
1276.7  47328.98  38476.97  81.30
1280.6  47427.97  38485.17  81.14
1284.5  47354.06  38340.25  80.97
1288.4  47330.17  38228.39  80.77
1292.3  47195.50  38036.17  80.59
1296.2  47036.33  37806.93  80.38
1300.1  46870.36  37559.84  80.14
1303.9  46619.88  37261.02  79.93
1307.8  46362.46  36976.57  79.76
1311.7  46091.30  36711.02  79.65
1315.6  45825.96  36483.57  79.61
1319.5  45558.05  36277.28  79.63
1323.3  45306.73  36081.32  79.64
1327.2  45081.41  35882.11  79.59
1331.1  44830.46  35623.87  79.46
1335.0  44517.46  35269.80  79.23
1338.8  44295.06  34954.90  78.91
1342.7  44103.48  34623.83  78.51
1346.5  43706.23  34044.39  77.89
1350.4  43365.23  33456.21  77.15
1354.3  42904.30  32799.55  76.45
1358.1  42414.00  32194.52  75.91
1362.0  42133.73  31810.08  75.50
1365.8  42044.97  31586.04  75.12
1369.7  42179.02  31507.73  74.70
1373.5  42126.10  31268.51  74.23
1377.4  41845.31  30882.60  73.80
1381.2  41626.26  30567.63  73.43
1385.1  41605.67  30377.68  73.01
1389.0  41500.27  30111.34  72.56
1392.8  41279.89  29775.65  72.13
1396.6  41128.69  29516.65  71.77
1400.5  40917.36  29224.91  71.42
1404.3  40743.76  28961.29  71.08
1408.2  40714.23  28791.58  70.72
1412.0  40658.86  28603.02  70.35
1415.8  40688.80  28445.88  69.91
1419.6  40646.12  28202.80  69.39
1423.5  40609.62  27951.50  68.83
1427.3  40564.30  27707.64  68.31
1431.1  40541.03  27514.05  67.87
1434.9  40441.04  27317.82  67.55
1438.8  40382.86  27184.28  67.32
1442.6  40343.84  27090.53  67.15
1446.4  40196.90  26945.45  67.03
1450.2  40086.31  26829.15  66.93
1454.0  39952.44  26700.32  66.83
1457.8  39925.25  26625.17  66.69
1461.6  39899.87  26549.06  66.54
1465.4  39763.25  26398.02  66.39
1469.2  39564.53  26212.55  66.25
1473.0  39396.65  26067.86  66.17
1476.8  39327.39  25988.94  66.08
1480.7  39262.61  25902.36  65.97
1484.4  39136.20  25751.84  65.80
1488.2  39038.16  25579.32  65.52
1492.0  38896.77  25346.01  65.16
1495.8  38756.90  25057.61  64.65
1499.6  38633.61  24680.05  63.88
1503.4  38493.31  24227.63  62.94
1507.2  38360.25  23767.02  61.96
1510.9  38195.59  23285.51  60.96
1514.7  38022.72  22800.78  59.97
1518.5  37900.97  22392.99  59.08
1522.3  37750.02  22090.92  58.52
1526.0  37629.32  21894.89  58.19
1529.8  37568.00  21746.46  57.89
1533.6  37446.52  21564.17  57.59
1537.3  37311.54  21365.70  57.26
1541.1  37176.81  21142.40  56.87
1544.8  37039.20  20913.60  56.46
1548.6  36901.40  20678.41  56.04
1552.4  36801.24  20429.29  55.51
1556.1  36709.12  20145.19  54.88
1559.9  36606.65  19844.67  54.21
1563.6  36470.47  19568.30  53.66
1567.3  36356.68  19387.68  53.33
1571.1  36135.22  19239.32  53.24
1574.8  35991.19  19161.25  53.24
1578.6  35886.86  19080.12  53.17
1582.3  35744.22  18933.62  52.97
1586.0  35609.35  18758.29  52.68
1589.8  35457.22  18549.46  52.32
1593.5  35302.19  18313.65  51.88
1597.2  35165.05  18096.34  51.46
1600.9  35016.52  17889.53  51.09
1604.7  34867.53  17697.30  50.76
1608.4  34730.61  17522.09  50.45
1612.1  34557.54  17321.63  50.12
1615.8  34413.02  17117.09  49.74
1619.5  34337.68  16922.22  49.28
1623.2  34189.48  16662.23  48.73
1626.9  34000.04  16314.59  47.98
1630.6  33831.60  15837.29  46.81
1634.3  33692.41  15320.45  45.47
1638.0  33541.83  14928.91  44.51
1641.7  33356.57  14785.91  44.33
1645.4  33161.69  14816.47  44.68
1649.1  32972.09  14851.88  45.04
1652.8  32801.54  14800.79  45.12
1656.4  32621.94  14596.49  44.74
1660.1  32453.88  14278.29  44.00
1663.8  32259.22  13907.43  43.11
1667.5  32099.10  13622.98  42.44
1671.1  31958.82  13518.43  42.30
1674.8  31759.13  13555.51  42.68
1678.5  31706.08  13725.20  43.29
1682.1  31722.89  13880.57  43.76
1685.8  31732.56  13975.25  44.04
1689.5  31624.03  14051.97  44.43
1693.1  31483.08  14207.36  45.13
1696.8  31338.13  14414.67  46.00
1700.4  31185.14  14600.87  46.82
1704.0  31062.51  14728.34  47.42
1707.7  30798.04  14694.16  47.71
1711.3  30495.47  14563.35  47.76
1715.0  30277.23  14414.54  47.61
1718.6  30100.95  14237.03  47.30
1722.2  29962.74  14048.27  46.89
1725.9  29812.62  13879.58  46.56
1729.5  29667.76  13774.92  46.43
1733.1  29538.89  13735.07  46.50
1736.7  29414.14  13716.68  46.63
1740.3  29250.14  13660.28  46.70
1744.0  29154.53  13647.62  46.81
1747.5  29000.44  13615.95  46.95
1751.2  28775.51  13550.41  47.09
1754.8  28605.69  13499.90  47.19
1758.4  28462.58  13444.97  47.24
1762.0  28276.20  13358.49  47.24
1765.5  28135.25  13300.36  47.27
1769.1  28084.80  13311.20  47.40
1772.7  28003.71  13330.83  47.60
1776.3  27877.58  13353.34  47.90
1779.9  27744.38  13380.57  48.23
1783.5  27681.76  13430.85  48.52
1787.0  27561.47  13442.95  48.77
1790.6  27400.03  13432.18  49.02
1794.2  27283.58  13439.49  49.26
1797.8  27171.37  13446.70  49.49
1801.3  27078.88  13453.33  49.68
1804.9  26927.25  13419.00  49.83
1808.4  26839.46  13414.40  49.98
1812.0  26683.02  13376.81  50.13
1815.5  26515.64  13322.69  50.24
1819.1  26311.24  13245.62  50.34
1822.6  26144.27  13197.68  50.48
1826.2  26001.22  13171.88  50.66
1829.7  25808.19  13124.74  50.85
1833.2  25554.19  13044.63  51.05
1836.8  25320.75  12971.44  51.23
1840.3  25192.67  12968.09  51.48
1843.8  25093.88  13003.13  51.82
1847.3  25048.77  13072.75  52.19
1850.8  25006.46  13125.50  52.49
1854.3  24882.94  13118.53  52.72
1857.8  24809.20  13114.40  52.86
1861.3  24778.14  13098.15  52.86
1864.8  24674.08  13008.67  52.72
1868.3  24414.78  12856.20  52.66
1871.8  24184.32  12759.04  52.76
1875.3  24125.47  12755.02  52.87
1878.8  24137.81  12768.83  52.90
1882.3  24078.64  12726.02  52.85
1885.8  23884.19  12597.96  52.75
1889.3  23688.44  12439.21  52.51
1892.7  23560.49  12289.35  52.16
1896.2  23413.27  12132.71  51.82
1899.7  23209.25  11974.15  51.59
1903.1  23142.50  11922.68  51.52
1906.6  23284.20  11987.11  51.48
1910.0  23641.63  12209.98  51.65
1913.5  24082.47  12547.01  52.10
1917.0  24628.98  12948.37  52.57
1920.4  25053.95  13389.84  53.44
1923.8  25086.73  13527.69  53.92
1871.2  21828.79  11206.29  51.34
1873.9  21992.11  11389.79  51.79
1876.7  22156.72  11545.99  52.11
1879.5  22368.96  11621.14  51.95
1882.3  22103.08  11478.57  51.93
1885.1  21946.52  11338.17  51.66
1887.8  22068.08  11352.91  51.44
1890.6  21822.87  11201.21  51.33
1893.4  21750.67  11053.78  50.82
1896.2  21682.13  10869.72  50.13
1898.9  21614.52  10692.71  49.47
1901.7  21461.80  10522.22  49.03
1904.5  21657.26  10516.52  48.56
1907.2  21622.00  10402.50  48.11
1910.0  21512.91  10270.80  47.74
1912.7  21473.88  10223.18  47.61
1915.5  21387.02  10142.18  47.42
1918.2  21326.87  10094.48  47.33
1921.0  21159.50  10000.97  47.26
1923.7  21210.60  10002.78  47.16
1926.5  21207.41  9984.94  47.08
1929.2  21180.03  9958.84  47.02
1932.0  21153.04  9946.63  47.02
1934.7  21108.13  9913.62  46.97
1937.4  20985.88  9857.10  46.97
1940.2  20941.69  9861.30  47.09
1942.9  21040.95  9950.05  47.29
1945.6  21034.30  9998.21  47.53
1948.3  20953.04  10000.70  47.73
1951.1  20946.59  10024.30  47.86
1953.8  20949.00  10053.00  47.99
1956.5  20812.26  10014.29  48.12
1959.2  20870.20  10081.28  48.30
1961.9  20880.86  10137.96  48.55
1964.6  20765.50  10111.04  48.69
1967.3  20814.13  10152.92  48.78
1970.0  20648.96  10083.73  48.83
1972.8  20547.54  10055.60  48.94
1975.5  20609.59  10101.88  49.02
1978.2  20556.80  10054.53  48.91
1980.9  20442.90  9974.16  48.79
1983.5  20332.16  9922.26  48.80
1986.2  20335.08  9895.94  48.66
1988.9  20352.54  9853.26  48.41
1991.6  20178.18  9706.73  48.11
1994.3  20021.93  9529.58  47.60
1997.0  20047.82  9408.32  46.93
1999.7  20006.90  9195.08  45.96
2002.3  19987.08  8984.79  44.95
2005.0  19903.66  8815.07  44.29
2007.7  19802.93  8651.60  43.69
2010.4  19742.33  8504.10  43.08
2013.0  19684.56  8338.70  42.36
2015.7  19550.67  8077.91  41.32
2018.4  19445.35  7830.14  40.27
2021.0  19399.83  7704.78  39.72
2023.7  19272.21  7681.00  39.86
2026.4  19215.30  7758.04  40.37
2029.0  19139.02  7813.62  40.83
2031.7  19015.32  7753.34  40.77
2034.3  19009.68  7640.68  40.19
2037.0  18888.65  7433.48  39.35
2039.6  18809.95  7288.41  38.75
2042.3  18768.09  7254.86  38.66
2044.9  18678.50  7322.92  39.21
2047.5  18656.06  7508.05  40.24
2050.2  18564.00  7658.93  41.26
2052.8  18496.80  7817.60  42.26
2055.4  18370.53  7880.15  42.90
2058.1  18222.40  7851.20  43.09
2060.7  18164.71  7856.75  43.25
2063.3  18093.83  7818.46  43.21
2065.9  18025.79  7738.50  42.93
2068.6  17958.79  7666.85  42.69
2071.2  17950.86  7597.17  42.32
2073.8  17825.38  7489.27  42.01
2076.4  17752.17  7407.73  41.73
2079.0  17784.49  7350.02  41.33
2081.6  17757.76  7276.22  40.97
2084.2  17714.42  7203.72  40.67
2086.8  17575.26  7074.61  40.25
2089.4  17476.70  6939.43  39.71
2092.1  17379.67  6822.67  39.26
2094.7  17322.90  6723.50  38.81
2097.2  17308.83  6643.22  38.38
2099.8  17282.11  6575.80  38.05
2102.4  17168.05  6447.73  37.56
2105.0  17051.55  6292.80  36.90
2107.6  16978.92  6164.74  36.31
2110.2  16924.97  6025.28  35.60
2112.8  16902.26  5854.56  34.64
2115.3  16895.66  5750.24  34.03
2117.9  16908.01  5696.94  33.69
2120.5  16886.60  5659.96  33.52
2123.1  16792.43  5646.23  33.62
2125.6  16744.21  5624.36  33.59
2128.2  16658.59  5569.44  33.43
2130.8  16549.65  5498.03  33.22
2133.3  16508.80  5431.56  32.90
2135.9  16408.62  5354.82  32.63
2138.4  16250.87  5242.12  32.26
2141.0  16149.08  5130.33  31.77
2143.6  16130.03  5067.88  31.42
2146.1  15975.72  4945.22  30.95
2148.7  15802.20  4834.73  30.60
2151.2  15798.93  4836.09  30.61
2153.8  15823.36  4882.99  30.86
2156.3  15717.64  4942.89  31.45
2158.8  15646.76  5007.87  32.01
2161.4  15629.12  5058.36  32.36
2163.9  15531.82  5074.08  32.67
2166.4  15439.71  5048.01  32.70
2169.0  15407.19  5033.23  32.67
2171.5  15330.32  4980.01  32.48
2174.0  15229.03  4915.69  32.28
2176.5  15192.19  4937.49  32.50
2179.1  15136.64  4944.15  32.66
2181.6  15050.17  4931.55  32.77
2184.1  15027.32  4967.01  33.05
2186.6  15051.45  5016.10  33.33
2189.1  14948.97  5018.30  33.57
2191.6  14892.73  5045.91  33.88
2194.1  14904.32  5112.05  34.30
2196.6  14914.76  5173.12  34.68
2199.2  14971.93  5245.29  35.03
2201.7  14888.99  5269.83  35.39
2204.1  14839.59  5292.26  35.66
2206.6  14849.13  5341.36  35.97
2209.1  14825.85  5382.27  36.30
2211.6  14838.39  5395.32  36.36
2214.1  14807.49  5395.84  36.44
2216.6  14760.32  5405.03  36.62
2219.1  14771.72  5405.03  36.59
2221.6  14667.09  5378.82  36.67
2224.0  14588.49  5355.59  36.71
2226.5  14584.57  5337.15  36.59
2229.0  14625.21  5334.41  36.47
2231.5  14492.72  5257.31  36.28
2233.9  14462.04  5201.66  35.97
2236.4  14490.44  5186.55  35.79
2238.9  14372.38  5127.92  35.68
2241.3  14369.01  5083.76  35.38
2243.8  14353.46  5017.69  34.96
2246.2  14192.48  4897.52  34.51
2248.7  14165.54  4810.55  33.96
2251.2  14158.84  4726.02  33.38
2253.6  14077.44  4619.52  32.82
2256.1  14069.76  4524.80  32.16
2258.5  14052.82  4498.59  32.01
2260.9  13974.74  4461.38  31.92
2263.4  13979.21  4407.69  31.53
2265.8  13940.32  4390.33  31.49
2268.3  13823.21  4393.51  31.78
2270.7  13902.44  4434.55  31.90
2273.1  13859.69  4443.49  32.06
2275.6  13793.28  4453.12  32.28
2278.0  13820.63  4477.49  32.40
2280.4  13780.88  4511.53  32.74
2282.8  13643.75  4482.10  32.85
2285.3  13694.71  4497.51  32.84
2287.7  13772.94  4559.74  33.11
2290.1  13623.19  4502.85  33.05
2292.5  13587.57  4464.38  32.86
2294.9  13621.40  4450.89  32.68
2297.3  13518.19  4342.59  32.12
2299.7  13416.44  4218.14  31.44
2302.1  13368.12  4143.08  30.99
2304.5  13230.00  3997.09  30.21
2306.9  13132.00  3846.83  29.29
2309.3  13055.89  3762.91  28.82
2311.7  12972.13  3726.13  28.72
2314.1  12811.40  3690.22  28.80
2316.5  12745.90  3668.14  28.78
2318.9  12782.83  3672.32  28.73
2321.3  12752.61  3657.94  28.68
2323.7  12794.64  3669.87  28.68
2326.1  12779.13  3648.49  28.55
2328.4  12774.57  3687.27  28.86
2330.8  12850.78  3790.07  29.49
2333.2  12766.83  3827.30  29.98
2335.6  12679.19  3912.25  30.86
2337.9  12711.97  3995.27  31.43
2340.3  12649.58  4020.61  31.78
2342.7  12593.44  4058.17  32.22
2345.0  12548.90  4127.76  32.89
2347.4  12490.75  4196.17  33.59
2349.7  12332.30  4187.66  33.96
2352.1  12260.35  4245.45  34.63
2354.4  12293.23  4291.17  34.91
2356.8  12267.97  4266.31  34.78
2359.2  12202.67  4262.55  34.93
2361.5  12151.88  4225.16  34.77
2363.8  12147.35  4186.73  34.47
2366.2  12114.60  4169.13  34.41
2368.5  12055.05  4096.97  33.99
2370.9  12078.00  4036.44  33.42
2373.2  12073.55  3951.07  32.73
2375.5  11918.85  3817.59  32.03
2377.9  11847.11  3763.66  31.77
2380.2  11871.10  3821.11  32.19
2382.5  11795.37  3855.21  32.68
2384.8  11725.28  3855.84  32.88
2387.2  11706.77  3886.63  33.20
2389.5  11690.85  3873.34  33.13
2391.8  11683.69  3824.85  32.74
2394.1  11631.16  3809.88  32.76
2396.4  11573.29  3804.55  32.87
2398.7  11628.67  3835.63  32.98
2401.0  11516.91  3804.35  33.03
2403.3  11364.36  3769.86  33.17
2405.6  11396.20  3808.73  33.42
2407.9  11327.61  3839.33  33.89
2410.2  11249.92  3845.22  34.18
2412.5  11215.24  3821.41  34.07
2414.8  11184.03  3813.59  34.10
2417.1  11138.88  3769.74  33.84
2419.4  11144.19  3733.83  33.50
2421.7  11023.23  3681.42  33.40
2424.0  10957.63  3603.24  32.88
2426.2  11021.00  3525.65  31.99
2428.5  10919.43  3443.31  31.53
2430.8  10910.90  3384.45  31.02
2433.1  10869.73  3306.09  30.42
2435.4  10753.59  3280.54  30.51
2437.6  10731.21  3250.70  30.29
2439.9  10623.58  3168.74  29.83
2442.2  10642.87  3136.17  29.47
2444.4  10630.91  3057.37  28.76
2446.7  10506.16  2921.95  27.81
2448.9  10564.25  2795.03  26.46
2451.2  10584.96  2632.33  24.87
2453.4  10444.21  2489.01  23.83
2455.7  10436.14  2384.01  22.84
2457.9  10354.08  2254.78  21.78
2460.2  10295.55  2182.41  21.20
2462.4  10283.52  2167.36  21.08
2464.7  10150.11  2165.86  21.34
2466.9  10098.66  2152.84  21.32
2469.2  10156.77  2180.00  21.46
2471.4  10037.89  2205.84  21.98
2473.6  9935.38  2260.68  22.75
2475.9  9895.84  2327.77  23.52
2478.1  9796.61  2331.88  23.80
2480.3  9746.33  2343.76  24.05
2482.5  9728.88  2413.75  24.81
2484.8  9691.90  2436.93  25.14
2487.0  9643.48  2421.98  25.12
2489.2  9626.45  2432.37  25.27
2491.4  9537.09  2423.34  25.41
2493.6  9539.25  2427.27  25.45
2495.8  9525.76  2425.65  25.46
2498.0  9476.69  2440.11  25.75
2500.2  9528.68  2434.83  25.55
2502.4  9759.12  2551.52  26.14
2504.6  9850.11  2644.85  26.85
2506.8  9985.21  2627.00  26.31
