/*** Spectra Vista SIG Data ***/
name= EXB.sig
comm= Averaged Ref/Tar of files: EXB4,EXB5,EXB6
data=
346.4  509.60  113.81  22.33
347.9  536.51  120.90  22.53
349.5  577.20  122.30  21.19
351.1  620.88  122.72  19.77
352.6  679.94  124.82  18.36
354.2  723.22  129.59  17.92
355.7  777.89  140.54  18.07
357.3  842.60  147.48  17.50
358.8  838.80  146.32  17.44
360.4  904.00  150.55  16.65
361.9  943.76  156.48  16.58
363.5  997.20  155.12  15.56
365.1  1040.25  156.73  15.07
366.6  1087.54  162.50  14.94
368.2  1161.70  159.82  13.76
369.7  1204.79  162.38  13.48
371.3  1287.37  163.75  12.72
372.8  1354.56  168.66  12.45
374.4  1435.13  174.89  12.19
375.9  1463.02  180.51  12.34
377.4  1512.41  178.67  11.81
379.0  1578.52  182.04  11.53
380.5  1618.77  185.88  11.48
382.1  1669.58  183.21  10.97
383.6  1726.52  184.09  10.66
385.2  1809.50  187.00  10.33
386.7  1900.67  194.22  10.22
388.3  1991.93  207.62  10.42
389.8  2077.97  215.57  10.37
391.3  2163.95  223.17  10.31
392.9  2236.17  238.22  10.65
394.4  2293.88  242.94  10.59
395.9  2364.42  259.99  11.00
397.5  2493.56  276.92  11.11
399.0  2617.23  279.33  10.67
400.6  2691.33  283.38  10.53
402.1  2739.96  278.64  10.17
403.6  2797.88  281.63  10.07
405.1  2865.39  286.39  9.99
406.7  2979.20  298.37  10.01
408.2  3089.54  309.47  10.02
409.7  3183.04  320.17  10.06
411.3  3295.62  337.52  10.24
412.8  3391.47  346.65  10.22
414.3  3507.27  360.92  10.29
415.8  3622.50  371.67  10.26
417.4  3739.34  387.26  10.36
418.9  3830.42  394.34  10.29
420.4  3913.23  406.78  10.39
421.9  3978.48  409.14  10.28
423.5  4044.22  413.45  10.22
425.0  4110.68  419.23  10.20
426.5  4198.95  426.27  10.15
428.0  4314.36  429.38  9.95
429.5  4445.73  438.71  9.87
431.1  4599.50  448.40  9.75
432.6  4769.72  465.25  9.75
434.1  4937.63  479.45  9.71
435.6  5085.18  493.55  9.71
437.1  5233.80  505.44  9.66
438.6  5364.45  521.38  9.72
440.1  5501.44  537.92  9.78
441.6  5653.06  555.89  9.83
443.1  5799.60  571.86  9.86
444.7  5941.01  594.30  10.00
446.2  6051.88  615.78  10.18
447.7  6161.82  640.35  10.39
449.2  6292.08  660.10  10.49
450.7  6396.00  681.41  10.65
452.2  6529.70  700.59  10.73
453.7  6647.26  720.42  10.84
455.2  6815.62  740.74  10.87
456.7  7013.60  771.82  11.00
458.2  7232.90  795.46  11.00
459.7  7456.75  824.60  11.06
461.2  7667.16  847.20  11.05
462.7  7858.10  872.09  11.10
464.2  8041.02  893.53  11.11
465.7  8240.35  914.97  11.10
467.2  8402.63  934.52  11.12
468.7  8584.00  954.67  11.12
470.2  8698.25  977.24  11.23
471.7  8877.75  1001.93  11.29
473.2  9159.71  1031.44  11.26
474.6  9386.40  1041.32  11.09
476.1  9450.96  1046.43  11.07
477.6  9499.75  1056.53  11.12
479.1  9557.87  1066.72  11.16
480.6  9632.82  1077.31  11.18
482.1  9760.73  1097.22  11.24
483.6  9935.74  1119.35  11.27
485.1  10133.78  1146.51  11.31
486.6  10366.07  1181.81  11.40
488.0  10621.00  1223.30  11.52
489.5  10873.80  1273.05  11.71
491.0  11134.31  1320.75  11.86
492.5  11404.80  1381.54  12.11
494.0  11683.71  1447.52  12.39
495.4  11917.95  1511.84  12.69
496.9  12154.26  1588.51  13.07
498.4  12387.41  1668.13  13.47
499.9  12623.63  1753.00  13.89
501.4  12839.71  1849.23  14.40
502.8  13042.06  1947.86  14.94
504.3  13226.40  2055.36  15.54
505.8  13406.54  2171.07  16.19
507.2  13518.16  2281.29  16.88
508.7  13603.31  2399.88  17.64
510.2  13672.60  2519.79  18.43
511.6  13715.26  2642.02  19.26
513.1  13806.21  2773.33  20.09
514.6  13898.29  2914.96  20.97
516.0  13992.63  3056.87  21.85
517.5  14151.40  3216.42  22.73
519.0  14339.95  3382.05  23.58
520.5  14520.56  3556.83  24.50
521.9  14760.83  3739.93  25.34
523.4  15031.28  3930.29  26.15
524.8  15295.25  4113.39  26.89
526.3  15594.01  4301.49  27.58
527.8  15909.50  4484.50  28.19
529.2  16189.50  4654.97  28.75
530.7  16509.28  4823.64  29.22
532.1  16791.25  4972.43  29.61
533.6  17121.20  5126.81  29.94
535.0  17454.94  5274.65  30.22
536.5  17789.22  5412.37  30.42
538.0  18136.88  5551.89  30.61
539.4  18461.69  5675.29  30.74
540.9  18864.39  5819.65  30.85
542.3  19206.33  5935.69  30.90
543.8  19460.81  6021.30  30.94
545.2  19544.37  6067.07  31.04
546.6  19566.05  6092.18  31.14
548.1  19604.97  6119.31  31.21
549.5  19640.65  6142.30  31.27
551.0  19664.79  6155.87  31.30
552.4  19724.92  6177.30  31.32
553.9  19761.60  6183.85  31.29
555.3  19812.20  6188.83  31.24
556.8  19934.49  6201.23  31.11
558.2  20047.50  6204.38  30.95
559.6  20200.16  6208.33  30.73
561.1  20397.00  6225.48  30.52
562.5  20617.77  6236.08  30.25
564.0  20901.40  6258.21  29.94
565.4  21161.13  6265.47  29.61
566.8  21482.31  6280.21  29.23
568.3  21793.28  6280.77  28.82
569.7  22118.60  6282.52  28.40
571.1  22425.71  6275.83  27.98
572.6  22741.56  6263.79  27.54
574.0  23030.70  6251.96  27.15
575.4  23309.44  6239.70  26.77
576.9  23581.06  6227.53  26.41
578.3  23822.01  6205.73  26.05
579.7  24048.22  6186.55  25.73
581.1  24227.75  6161.07  25.43
582.6  24429.78  6141.66  25.14
584.0  24600.48  6119.73  24.88
585.4  24853.74  6118.53  24.62
586.8  25196.68  6137.09  24.36
588.3  25573.86  6168.24  24.12
589.7  25896.78  6190.70  23.91
591.1  26104.75  6189.02  23.71
592.5  26211.06  6169.39  23.54
594.0  26269.26  6149.69  23.41
595.4  26286.44  6113.88  23.26
596.8  26295.56  6086.65  23.15
598.2  26315.92  6059.64  23.03
599.6  26317.98  6026.73  22.90
601.0  26398.05  6013.02  22.78
602.4  26470.93  5990.31  22.63
603.9  26597.64  5978.26  22.48
605.3  26727.57  5964.56  22.32
606.7  26857.80  5939.04  22.11
608.1  27088.39  5928.35  21.89
609.5  27333.21  5924.57  21.68
610.9  27623.29  5921.95  21.44
612.3  27891.32  5912.03  21.20
613.7  28252.28  5916.90  20.94
615.1  28513.62  5898.09  20.69
616.5  28776.05  5878.37  20.43
617.9  29165.50  5891.86  20.20
619.3  29543.24  5906.61  19.99
620.7  29990.55  5947.72  19.83
622.1  30437.05  5963.72  19.59
623.5  30934.60  5962.14  19.27
624.9  31494.75  5989.27  19.02
626.3  31867.36  6062.63  19.02
627.7  31569.69  6023.12  19.08
629.1  31287.59  5973.03  19.09
630.5  31184.65  5938.15  19.04
631.9  31222.21  5919.34  18.96
633.3  31256.33  5894.26  18.86
634.7  31400.48  5885.59  18.74
636.1  31461.82  5835.70  18.55
637.5  31554.77  5778.43  18.31
638.9  31702.82  5725.55  18.06
640.2  31825.04  5655.83  17.77
641.6  31863.78  5565.77  17.47
643.0  31847.61  5454.72  17.13
644.4  31829.55  5324.88  16.73
645.8  31751.71  5183.18  16.32
647.2  31867.94  5088.86  15.97
648.5  31926.34  4983.13  15.61
649.9  31776.23  4864.16  15.31
651.3  31648.05  4749.80  15.01
652.7  31449.15  4628.08  14.72
654.1  31244.46  4513.94  14.45
655.5  31005.95  4406.39  14.21
656.8  30780.41  4307.08  13.99
658.2  30925.42  4253.78  13.75
659.6  31264.45  4212.04  13.47
660.9  31536.04  4148.97  13.16
662.3  31822.64  4091.62  12.86
663.7  32096.40  4020.24  12.53
665.0  32332.90  3944.53  12.20
666.4  32562.99  3877.79  11.91
667.8  32863.56  3831.62  11.66
669.1  33114.69  3789.52  11.44
670.5  33405.09  3764.46  11.27
671.9  33586.56  3746.26  11.15
673.2  33844.75  3751.07  11.08
674.6  34082.18  3767.50  11.05
676.0  34372.41  3814.51  11.10
677.3  34659.68  3872.40  11.17
678.7  34979.63  3960.43  11.32
680.0  35399.92  4088.38  11.55
681.4  35845.89  4256.42  11.87
682.8  36270.33  4479.32  12.35
684.1  36705.24  4754.57  12.95
685.5  37104.21  5091.38  13.72
686.8  37507.62  5499.25  14.66
688.2  37862.83  5969.63  15.77
689.5  38000.96  6473.77  17.04
690.9  38124.79  7031.88  18.44
692.2  38229.60  7629.94  19.96
693.6  38334.37  8262.77  21.55
694.9  38335.34  8891.43  23.19
696.2  38393.33  9539.25  24.85
697.6  38453.39  10190.15  26.50
698.9  38522.88  10847.93  28.16
700.3  38613.54  11493.82  29.77
701.6  38716.02  12130.62  31.33
703.0  38828.83  12745.47  32.82
704.3  38882.19  13321.15  34.26
705.6  38895.39  13874.86  35.67
707.0  38949.12  14418.09  37.02
708.3  38885.46  14884.66  38.28
709.6  38817.35  15326.60  39.48
711.0  38702.88  15738.94  40.67
712.3  38573.15  16120.11  41.79
713.6  38531.64  16531.03  42.90
714.9  38462.14  16896.92  43.93
716.3  38461.08  17278.11  44.92
717.6  38479.84  17665.49  45.91
718.9  38424.85  17979.87  46.79
720.2  38251.08  18220.53  47.63
721.6  38113.53  18474.61  48.47
722.9  37945.16  18709.88  49.31
724.2  37714.27  18865.10  50.02
725.5  37534.96  19036.25  50.72
726.8  37360.68  19194.53  51.38
728.1  37271.09  19364.67  51.96
729.5  37167.13  19540.44  52.57
730.8  37093.13  19693.94  53.09
732.1  36996.92  19825.28  53.59
733.4  36936.39  19951.91  54.02
734.7  36864.47  20060.14  54.42
736.0  36851.62  20193.59  54.80
737.3  36774.45  20280.09  55.15
738.6  36845.76  20443.20  55.48
739.9  37000.34  20645.01  55.80
741.2  37119.81  20798.96  56.03
742.5  37372.03  21004.07  56.20
743.8  37768.50  21332.08  56.48
745.1  38387.22  21769.37  56.71
746.4  39127.73  22247.01  56.86
747.7  39918.22  22737.10  56.96
749.0  40672.12  23225.49  57.10
750.3  41122.66  23527.55  57.21
751.6  41047.35  23518.49  57.30
752.9  40630.59  23313.54  57.38
754.2  40176.47  23067.97  57.42
755.4  39652.21  22791.26  57.48
756.7  39478.17  22727.54  57.57
758.0  39495.60  22789.20  57.70
759.3  39730.28  22960.57  57.79
760.6  40061.56  23196.09  57.90
761.9  40384.10  23396.63  57.94
763.1  40567.56  23513.69  57.96
764.4  40796.65  23657.51  57.99
765.7  40953.25  23775.27  58.05
767.0  41079.80  23854.18  58.07
768.2  41207.04  23929.47  58.07
769.5  41279.98  23993.13  58.12
770.8  41469.61  24115.15  58.15
772.0  41501.32  24136.25  58.16
773.3  41583.65  24184.68  58.16
774.6  41708.58  24256.13  58.16
775.8  41815.15  24328.14  58.18
777.1  41846.51  24340.06  58.17
778.4  41799.94  24319.36  58.18
779.6  41775.90  24316.74  58.21
780.9  41704.00  24288.53  58.24
782.1  41523.21  24189.02  58.25
783.4  41558.40  24191.23  58.21
784.6  41567.36  24217.38  58.26
785.9  41861.56  24392.63  58.27
787.1  42409.87  24744.50  58.35
788.4  42854.47  25027.10  58.40
789.6  42849.18  25006.12  58.36
790.9  42483.96  24743.69  58.24
792.1  42011.92  24463.11  58.23
793.4  41570.15  24213.63  58.25
794.6  41283.15  24051.14  58.26
795.8  41024.39  23907.33  58.28
797.1  40758.68  23743.03  58.25
798.3  40551.64  23637.35  58.29
799.5  40444.72  23590.57  58.33
800.8  40323.21  23524.73  58.34
802.0  40187.32  23455.18  58.36
803.2  40033.64  23373.22  58.38
804.5  39942.72  23314.99  58.37
805.7  39829.66  23264.94  58.41
806.9  39715.93  23204.20  58.43
808.1  39632.97  23146.49  58.40
809.4  39553.39  23130.36  58.48
810.6  39489.45  23095.80  58.49
811.8  39474.39  23080.76  58.47
813.0  39504.71  23113.06  58.51
814.2  39525.61  23137.83  58.54
815.4  39644.33  23208.83  58.54
816.6  39709.73  23245.97  58.54
817.9  39791.57  23290.36  58.53
819.1  39719.87  23256.14  58.55
820.3  39621.11  23173.27  58.49
821.5  39546.25  23119.20  58.46
822.7  39480.04  23094.26  58.50
823.9  39499.25  23101.12  58.48
825.1  39541.96  23107.82  58.44
826.3  39583.35  23141.92  58.46
827.5  39640.56  23176.49  58.47
828.7  39708.48  23215.26  58.46
829.9  39767.03  23250.86  58.47
831.0  39870.82  23319.32  58.49
832.2  39993.87  23370.13  58.43
833.4  40076.64  23432.47  58.47
834.6  40148.44  23483.13  58.49
835.8  40238.10  23543.10  58.51
837.0  40328.28  23609.93  58.54
838.1  40500.72  23700.82  58.52
839.3  40601.19  23748.07  58.49
840.5  40716.87  23815.19  58.49
841.7  40854.11  23916.73  58.54
842.9  40980.73  24007.81  58.58
844.0  41100.82  24048.42  58.51
845.2  41245.09  24150.15  58.55
846.4  41368.25  24242.15  58.60
847.5  41564.18  24370.69  58.63
848.7  41743.64  24478.82  58.64
849.9  41936.76  24567.92  58.58
851.0  42020.98  24606.66  58.56
852.2  42107.61  24654.75  58.55
853.3  42066.96  24655.04  58.61
854.5  42098.11  24634.97  58.52
855.6  42095.43  24639.38  58.53
856.8  42111.00  24668.17  58.58
857.9  42111.88  24670.64  58.58
859.1  42240.60  24733.87  58.55
860.2  42245.56  24744.04  58.57
861.4  42273.83  24761.93  58.58
862.5  42309.54  24783.88  58.58
863.7  42384.63  24839.08  58.60
864.8  42387.10  24839.08  58.60
865.9  42333.82  24798.41  58.58
867.1  42372.33  24814.43  58.56
868.2  42368.54  24823.21  58.59
869.3  42393.50  24837.36  58.59
870.5  42342.80  24788.66  58.54
871.6  42318.48  24792.59  58.59
872.7  42385.23  24837.32  58.60
873.9  42404.90  24836.27  58.57
875.0  42391.36  24817.20  58.54
876.1  42363.75  24809.24  58.56
877.2  42397.32  24837.38  58.58
878.3  42381.77  24812.57  58.55
879.4  42397.70  24840.63  58.59
880.5  42451.56  24846.62  58.53
881.7  42410.55  24824.97  58.53
882.8  42454.72  24851.40  58.54
883.9  42482.63  24882.98  58.57
885.0  42446.04  24837.08  58.51
886.1  42420.10  24821.56  58.51
887.2  42295.80  24744.09  58.50
888.3  42201.80  24683.81  58.49
889.4  42117.30  24629.16  58.48
890.5  42026.34  24564.44  58.45
891.6  41981.69  24547.21  58.47
892.7  41962.31  24522.34  58.44
893.8  41981.79  24556.15  58.49
894.9  41952.35  24554.83  58.53
896.0  41968.71  24510.04  58.40
897.0  41952.48  24543.68  58.50
898.1  41951.64  24548.72  58.52
899.2  41983.30  24538.05  58.45
900.3  41907.57  24496.63  58.45
901.4  41820.39  24422.25  58.40
902.4  41828.99  24454.07  58.46
903.5  41775.96  24422.87  58.46
904.6  41798.96  24413.59  58.41
905.7  41805.42  24431.43  58.44
906.7  41815.90  24418.94  58.40
907.8  41839.20  24439.77  58.41
908.9  41746.38  24405.18  58.46
909.9  41734.69  24384.12  58.43
911.0  41681.88  24353.98  58.43
912.1  41602.05  24308.18  58.43
913.1  41535.52  24274.50  58.44
914.2  41457.24  24179.42  58.32
915.2  41368.59  24175.80  58.44
916.3  41436.15  24213.80  58.44
917.3  41410.15  24193.47  58.42
918.4  41310.50  24121.53  58.39
919.4  41328.17  24106.22  58.33
920.5  41309.67  24112.98  58.37
921.5  41323.66  24132.24  58.40
922.6  41255.80  24084.32  58.38
923.6  41303.54  24125.84  58.41
924.7  41344.50  24121.57  58.34
925.7  41333.16  24123.68  58.36
926.7  41356.90  24123.76  58.33
927.8  41415.30  24137.69  58.28
928.8  41570.85  24236.05  58.30
929.9  41658.93  24299.72  58.33
930.9  41879.39  24369.51  58.19
931.9  42070.56  24476.58  58.18
932.9  42412.10  24668.66  58.16
934.0  42452.50  24683.30  58.14
935.0  42440.57  24677.27  58.15
936.0  42488.02  24681.82  58.09
937.0  42429.47  24674.99  58.16
938.1  42380.86  24636.96  58.13
939.1  42337.65  24595.82  58.09
940.1  42429.30  24636.10  58.06
941.1  42615.86  24746.07  58.07
942.1  42903.92  24900.02  58.04
943.1  43057.09  24974.38  58.00
944.1  43342.63  25078.98  57.86
945.2  43356.60  25133.81  57.97
946.2  43482.48  25166.01  57.88
947.2  43549.00  25198.50  57.86
948.2  43743.16  25275.03  57.78
949.2  43840.88  25335.81  57.79
950.2  43906.25  25336.83  57.71
951.2  44010.96  25378.42  57.66
952.2  44061.91  25446.37  57.75
953.2  44318.14  25517.31  57.58
954.2  44380.80  25563.18  57.60
955.2  44428.35  25602.12  57.63
956.2  44460.20  25559.40  57.49
957.2  44542.35  25603.60  57.48
958.2  44649.94  25652.79  57.45
959.2  44705.25  25692.06  57.47
960.1  44813.66  25716.09  57.38
961.1  44928.76  25751.49  57.32
962.1  44958.75  25778.25  57.34
963.1  44986.01  25797.33  57.35
964.1  45106.16  25842.19  57.29
965.1  45270.70  25937.30  57.29
966.1  45207.41  25933.60  57.37
967.0  45355.66  25999.60  57.32
968.0  45441.48  26020.41  57.26
969.0  45453.60  26028.11  57.26
970.0  45557.64  26130.90  57.36
971.0  45615.57  26154.14  57.34
971.9  45699.86  26168.19  57.26
972.9  45781.93  26167.66  57.16
973.9  45829.88  26256.97  57.29
974.9  45973.78  26257.39  57.11
975.8  45979.65  26221.65  57.03
976.8  46106.16  26253.81  56.94
977.8  46097.80  26271.82  56.99
978.8  46103.70  26304.76  57.06
979.7  46387.55  26329.06  56.76
980.7  46405.76  26366.85  56.82
981.7  46694.84  26428.52  56.60
982.6  46857.76  26411.90  56.37
983.6  47433.79  26748.73  56.39
984.6  47818.98  26855.91  56.16
985.5  48063.24  27210.62  56.61
986.5  48770.77  27465.50  56.32
987.5  50043.63  28009.77  55.97
988.4  50895.90  28538.69  56.07
989.4  52431.75  29078.82  55.46
990.4  53425.02  29816.81  55.81
991.3  55387.31  30812.39  55.63
992.3  55950.90  31196.86  55.76
993.2  58118.31  32073.53  55.19
994.2  59457.94  32790.42  55.15
995.2  60710.63  33610.00  55.36
996.1  61737.77  34312.34  55.58
997.1  61885.85  33744.07  54.53
998.0  61668.00  33437.76  54.22
999.0  61787.86  33772.54  54.66
1000.0  62252.49  33351.34  53.57
1000.9  62564.91  34312.33  54.84
1001.9  61626.12  33786.25  54.82
1002.8  61885.09  33005.38  53.33
1003.8  61970.58  33109.17  53.43
1004.8  62064.96  33527.25  54.02
961.5  55881.62  28134.17  50.35
965.5  54589.44  27834.93  50.99
969.5  52393.79  27109.86  51.74
973.4  50126.74  26310.53  52.49
977.4  48345.52  25654.33  53.06
981.4  47464.01  25488.87  53.70
985.3  47176.98  25577.14  54.22
989.3  47304.75  25784.68  54.51
993.3  47508.66  26001.88  54.73
997.2  47541.75  26102.93  54.91
1001.2  47520.33  26147.55  55.02
1005.2  47455.76  26150.08  55.10
1009.1  47529.68  26199.51  55.12
1013.1  47663.39  26331.44  55.24
1017.1  47785.75  26455.78  55.36
1021.0  47816.50  26500.55  55.42
1025.0  47819.30  26534.51  55.49
1029.0  47652.00  26468.52  55.55
1032.9  47495.63  26394.16  55.57
1036.9  47497.16  26415.81  55.62
1040.9  47608.97  26502.24  55.67
1044.8  47827.54  26624.68  55.67
1048.8  48004.98  26739.29  55.70
1052.7  48133.54  26830.35  55.74
1056.7  48188.20  26868.17  55.76
1060.7  48194.60  26887.22  55.79
1064.6  48198.22  26906.20  55.82
1068.6  48113.17  26860.00  55.83
1072.5  48026.55  26811.28  55.83
1076.5  47975.49  26791.38  55.84
1080.4  47966.69  26773.62  55.82
1084.4  48069.59  26815.69  55.79
1088.3  48170.15  26867.31  55.78
1092.3  48152.58  26844.81  55.75
1096.2  48142.77  26825.97  55.72
1100.2  48183.64  26828.45  55.68
1104.1  48079.94  26742.01  55.62
1108.1  48035.13  26685.28  55.55
1112.0  47943.86  26595.87  55.47
1116.0  47742.57  26438.62  55.38
1119.9  47581.47  26290.61  55.25
1123.9  47666.30  26275.20  55.12
1127.8  47639.04  26184.96  54.97
1131.8  47617.38  26075.64  54.76
1135.7  47659.94  25962.62  54.47
1139.6  47675.62  25782.59  54.08
1143.6  47638.82  25573.42  53.68
1147.5  47616.88  25372.18  53.28
1151.4  47500.80  25125.95  52.90
1155.4  47513.75  25016.64  52.65
1159.3  47522.52  24962.35  52.53
1163.2  47363.89  24831.85  52.43
1167.2  47347.50  24791.80  52.36
1171.1  47369.57  24781.58  52.32
1175.0  47314.40  24734.53  52.28
1179.0  47268.08  24701.95  52.26
1182.9  47358.68  24731.49  52.22
1186.8  47350.70  24715.62  52.20
1190.7  47139.70  24582.82  52.15
1194.7  46883.87  24424.77  52.10
1198.6  46652.76  24305.82  52.10
1202.5  46480.48  24220.60  52.11
1206.4  46340.80  24156.54  52.13
1210.3  46236.01  24114.88  52.16
1214.2  46114.66  24066.61  52.19
1218.2  45952.68  23996.44  52.22
1222.1  45800.88  23938.07  52.27
1226.0  45686.61  23897.13  52.31
1229.9  45598.02  23861.66  52.33
1233.8  45484.04  23826.91  52.39
1237.7  45416.66  23805.40  52.42
1241.6  45332.53  23767.97  52.43
1245.5  45166.97  23694.71  52.46
1249.4  45023.84  23620.57  52.46
1253.3  44894.25  23558.03  52.47
1257.2  44816.00  23525.36  52.49
1261.1  44716.86  23456.31  52.46
1265.0  44587.73  23362.37  52.40
1268.9  44400.64  23246.55  52.36
1272.8  44460.00  23257.90  52.31
1276.7  44653.74  23329.61  52.25
1280.6  44733.81  23339.01  52.17
1284.5  44649.07  23256.13  52.09
1288.4  44631.63  23192.61  51.96
1292.3  44511.50  23076.17  51.84
1296.2  44360.33  22933.30  51.70
1300.1  44197.71  22770.14  51.52
1303.9  43963.66  22561.53  51.32
1307.8  43715.49  22335.05  51.09
1311.7  43464.03  22088.27  50.82
1315.6  43214.30  21823.72  50.50
1319.5  42962.15  21538.34  50.13
1323.3  42734.84  21257.84  49.74
1327.2  42525.95  20976.54  49.33
1331.1  42285.13  20668.00  48.88
1335.0  41985.32  20322.58  48.40
1338.8  41775.29  20019.62  47.92
1342.7  41609.18  19711.75  47.37
1346.5  41242.98  19283.65  46.76
1350.4  40931.78  18876.09  46.12
1354.3  40517.39  18406.38  45.43
1358.1  40047.65  17936.34  44.79
1362.0  39764.09  17584.60  44.22
1365.8  39670.89  17329.76  43.68
1369.7  39786.92  17145.06  43.09
1373.5  39741.56  16798.74  42.27
1377.4  39487.75  16230.13  41.10
1381.2  39276.49  15546.19  39.58
1385.1  39242.56  14849.53  37.84
1389.0  39129.70  14068.78  35.95
1392.8  38925.66  13195.82  33.90
1396.6  38773.68  12337.69  31.82
1400.5  38560.99  11517.81  29.87
1404.3  38397.74  10823.78  28.19
1408.2  38363.03  10275.51  26.78
1412.0  38325.01  9830.71  25.65
1415.8  38359.09  9518.56  24.81
1419.6  38319.36  9267.59  24.19
1423.5  38299.37  9077.74  23.70
1427.3  38266.05  8939.73  23.36
1431.1  38248.58  8845.85  23.13
1434.9  38159.15  8761.96  22.96
1438.8  38104.90  8713.66  22.87
1442.6  38084.31  8695.00  22.83
1446.4  37958.74  8665.27  22.83
1450.2  37871.04  8657.33  22.86
1454.0  37772.76  8657.16  22.92
1457.8  37752.26  8694.98  23.03
1461.6  37732.17  8752.03  23.20
1465.4  37609.21  8809.71  23.42
1469.2  37426.03  8882.36  23.73
1473.0  37290.43  8994.15  24.12
1476.8  37245.30  9152.25  24.57
1480.7  37186.44  9322.63  25.07
1484.4  37061.40  9490.88  25.61
1488.2  36961.08  9675.56  26.18
1492.0  36836.53  9857.79  26.76
1495.8  36720.78  10039.58  27.34
1499.6  36605.30  10206.88  27.88
1503.4  36479.87  10363.11  28.41
1507.2  36356.05  10528.45  28.96
1510.9  36204.04  10684.86  29.51
1514.7  36047.88  10804.41  29.97
1518.5  35919.58  10912.21  30.38
1522.3  35781.38  11028.48  30.82
1526.0  35674.52  11167.68  31.30
1529.8  35609.17  11323.22  31.80
1533.6  35484.33  11444.91  32.25
1537.3  35352.32  11560.81  32.70
1541.1  35225.58  11676.18  33.15
1544.8  35097.60  11780.80  33.57
1548.6  34949.35  11880.57  33.99
1552.4  34850.72  11981.88  34.38
1556.1  34790.76  12088.56  34.75
1559.9  34705.82  12175.08  35.08
1563.6  34578.39  12237.25  35.39
1567.3  34459.02  12316.47  35.74
1571.1  34243.92  12350.74  36.07
1574.8  34100.68  12402.85  36.37
1578.6  34000.34  12466.95  36.67
1582.3  33854.52  12500.84  36.93
1586.0  33716.51  12525.49  37.15
1589.8  33582.95  12545.68  37.36
1593.5  33431.04  12562.46  37.58
1597.2  33294.67  12581.24  37.79
1600.9  33154.19  12589.32  37.97
1604.7  33000.40  12595.73  38.17
1608.4  32856.34  12609.04  38.38
1612.1  32695.22  12602.13  38.54
1615.8  32545.96  12593.80  38.70
1619.5  32465.11  12607.51  38.83
1623.2  32316.22  12596.25  38.98
1626.9  32130.25  12562.91  39.10
1630.6  31953.68  12533.99  39.23
1634.3  31816.04  12516.37  39.34
1638.0  31668.49  12483.35  39.42
1641.7  31487.82  12439.96  39.51
1645.4  31299.16  12384.96  39.57
1649.1  31105.38  12325.64  39.63
1652.8  30949.76  12274.13  39.66
1656.4  30780.36  12208.73  39.66
1660.1  30613.88  12154.07  39.70
1663.8  30416.03  12087.79  39.74
1667.5  30257.50  12032.09  39.77
1671.1  30134.40  11979.79  39.75
1674.8  29937.06  11899.08  39.75
1678.5  29873.87  11869.63  39.73
1682.1  29892.23  11855.61  39.66
1685.8  29901.92  11837.16  39.59
1689.5  29795.07  11769.32  39.50
1693.1  29653.44  11682.52  39.40
1696.8  29511.75  11594.75  39.29
1700.4  29358.15  11505.06  39.19
1704.0  29237.42  11418.61  39.05
1707.7  28983.16  11276.14  38.91
1711.3  28689.26  11116.37  38.75
1715.0  28479.20  10989.04  38.59
1718.6  28311.14  10876.24  38.42
1722.2  28171.19  10770.18  38.23
1725.9  28024.58  10662.24  38.05
1729.5  27888.80  10559.17  37.86
1733.1  27770.82  10465.24  37.68
1736.7  27655.67  10363.68  37.47
1740.3  27487.42  10239.43  37.25
1744.0  27395.86  10144.67  37.03
1747.5  27255.01  10018.29  36.76
1751.2  27041.09  9864.98  36.48
1754.8  26881.34  9734.78  36.21
1758.4  26750.86  9615.47  35.94
1762.0  26572.85  9481.94  35.68
1765.5  26446.23  9370.45  35.43
1769.1  26402.40  9296.00  35.21
1772.7  26328.38  9213.52  34.99
1776.3  26208.92  9119.57  34.80
1779.9  26081.92  9033.98  34.64
1783.5  26027.60  8977.60  34.49
1787.0  25897.14  8896.44  34.35
1790.6  25747.79  8816.12  34.24
1794.2  25651.68  8761.73  34.16
1797.8  25552.23  8704.73  34.07
1801.3  25471.95  8653.33  33.97
1804.9  25318.13  8581.13  33.89
1808.4  25235.40  8534.57  33.82
1812.0  25102.89  8463.56  33.72
1815.5  24947.72  8384.48  33.61
1819.1  24745.29  8292.96  33.51
1822.6  24588.72  8216.44  33.42
1826.2  24468.62  8144.46  33.29
1829.7  24298.19  8047.36  33.12
1833.2  24066.25  7925.36  32.93
1836.8  23846.10  7807.50  32.74
1840.3  23701.28  7729.61  32.61
1843.8  23605.26  7662.62  32.46
1847.3  23552.23  7606.21  32.30
1850.8  23482.37  7525.06  32.05
1854.3  23328.90  7390.06  31.68
1857.8  23249.20  7215.87  31.04
1861.3  23245.10  6971.95  29.99
1864.8  23154.55  6624.83  28.61
1868.3  22923.75  6184.49  26.98
1871.8  22725.12  5729.28  25.21
1875.3  22663.55  5285.59  23.32
1878.8  22668.35  4875.00  21.51
1882.3  22613.87  4467.42  19.76
1885.8  22446.65  4042.27  18.01
1889.3  22245.45  3664.48  16.47
1892.7  22073.02  3367.47  15.26
1896.2  21956.57  3157.79  14.38
1899.7  21800.31  3047.24  13.98
1903.1  21719.54  3048.58  14.04
1906.6  21807.87  3198.70  14.67
1910.0  22098.88  3509.41  15.88
1913.5  22634.73  3962.70  17.51
1917.0  23151.98  4615.63  19.94
1920.4  23436.08  5300.47  22.62
1923.8  23677.97  5851.76  24.71
1871.2  20787.15  4406.97  21.20
1873.9  20907.54  4245.22  20.30
1876.7  21048.38  4023.96  19.12
1879.5  21252.88  3732.89  17.56
1882.3  20993.42  3413.20  16.26
1885.1  20851.78  3103.20  14.88
1887.8  20921.79  2784.62  13.31
1890.6  20723.54  2518.32  12.15
1893.4  20650.67  2275.78  11.02
1896.2  20581.86  2012.57  9.78
1898.9  20516.13  1864.91  9.09
1901.7  20380.18  1739.99  8.54
1904.5  20546.36  1662.82  8.09
1907.2  20463.00  1603.92  7.84
1910.0  20358.58  1550.63  7.62
1912.7  20364.96  1534.61  7.54
1915.5  20273.08  1520.39  7.50
1918.2  20210.43  1494.55  7.39
1921.0  20079.87  1468.17  7.31
1923.7  20126.73  1489.63  7.40
1926.5  20096.89  1498.07  7.45
1929.2  20080.15  1488.96  7.42
1932.0  20066.00  1516.80  7.56
1934.7  20016.92  1524.77  7.62
1937.4  19925.11  1518.78  7.62
1940.2  19881.39  1546.91  7.78
1942.9  19959.98  1570.21  7.87
1945.6  19965.22  1606.64  8.05
1948.3  19894.11  1640.54  8.25
1951.1  19862.99  1660.52  8.36
1953.8  19866.00  1688.00  8.50
1956.5  19752.03  1717.14  8.69
1959.2  19805.76  1756.13  8.87
1961.9  19837.86  1789.99  9.02
1964.6  19745.08  1836.57  9.30
1967.3  19784.70  1878.89  9.50
1970.0  19621.84  1899.33  9.68
1972.8  19538.55  1946.40  9.96
1975.5  19602.81  2001.84  10.21
1978.2  19540.64  2033.29  10.41
1980.9  19419.73  2068.68  10.65
1983.5  19352.05  2107.57  10.89
1986.2  19366.05  2143.70  11.07
1988.9  19348.59  2188.32  11.31
1991.6  19202.00  2223.67  11.58
1994.3  19065.89  2259.64  11.85
1997.0  19096.32  2315.32  12.12
1999.7  19065.00  2358.59  12.37
2002.3  19034.90  2399.14  12.60
2005.0  18965.86  2435.58  12.84
2007.7  18877.00  2477.75  13.13
2010.4  18811.60  2516.21  13.38
2013.0  18774.16  2552.92  13.60
2015.7  18678.28  2587.81  13.85
2018.4  18548.96  2617.30  14.11
2021.0  18504.50  2666.17  14.41
2023.7  18401.60  2698.52  14.66
2026.4  18333.68  2721.84  14.85
2029.0  18267.40  2763.87  15.13
2031.7  18144.97  2778.17  15.31
2034.3  18142.15  2797.89  15.42
2037.0  18035.71  2828.14  15.68
2039.6  17974.39  2857.41  15.90
2042.3  17908.74  2890.71  16.14
2044.9  17825.78  2925.62  16.41
2047.5  17820.17  2952.73  16.57
2050.2  17715.60  2955.87  16.69
2052.8  17679.20  2984.80  16.88
2055.4  17538.43  3007.12  17.15
2058.1  17416.00  3009.07  17.28
2060.7  17404.47  3046.55  17.50
2063.3  17299.63  3069.98  17.75
2065.9  17230.17  3087.58  17.92
2068.6  17165.96  3103.40  18.08
2071.2  17119.44  3122.94  18.24
2073.8  17041.85  3133.20  18.39
2076.4  16999.98  3160.31  18.59
2079.0  17011.74  3200.59  18.81
2081.6  16984.09  3215.64  18.93
2084.2  16930.00  3239.27  19.13
2086.8  16834.24  3232.78  19.20
2089.4  16742.01  3240.42  19.36
2092.1  16637.33  3265.89  19.63
2094.7  16574.28  3286.42  19.83
2097.2  16549.50  3297.05  19.92
2099.8  16541.98  3324.91  20.10
2102.4  16400.35  3340.92  20.37
2105.0  16267.80  3321.20  20.42
2107.6  16238.35  3340.15  20.57
2110.2  16217.39  3362.64  20.73
2112.8  16200.74  3369.19  20.80
2115.3  16182.65  3402.42  21.03
2117.9  16188.40  3433.64  21.21
2120.5  16181.17  3431.93  21.21
2123.1  16113.83  3439.80  21.35
2125.6  16056.05  3460.32  21.55
2128.2  15953.26  3442.73  21.58
2130.8  15859.35  3455.40  21.79
2133.3  15825.33  3467.20  21.91
2135.9  15723.21  3458.42  22.00
2138.4  15584.92  3444.65  22.10
2141.0  15487.96  3430.99  22.15
2143.6  15482.13  3431.03  22.16
2146.1  15358.67  3403.57  22.16
2148.7  15182.57  3389.89  22.33
2151.2  15188.80  3400.71  22.39
2153.8  15199.37  3422.11  22.51
2156.3  15064.95  3405.19  22.60
2158.8  14994.07  3381.57  22.55
2161.4  14983.43  3392.55  22.64
2163.9  14894.98  3373.88  22.65
2166.4  14806.99  3342.02  22.57
2169.0  14777.42  3359.76  22.74
2171.5  14688.72  3341.03  22.75
2174.0  14586.43  3307.21  22.67
2176.5  14576.25  3320.89  22.78
2179.1  14537.32  3310.83  22.77
2181.6  14435.75  3298.18  22.85
2184.1  14405.16  3289.44  22.84
2186.6  14458.30  3290.02  22.76
2189.1  14358.33  3268.85  22.77
2191.6  14308.00  3263.40  22.81
2194.1  14339.64  3279.59  22.87
2196.6  14340.73  3269.86  22.80
2199.2  14399.84  3281.36  22.79
2201.7  14323.09  3293.94  23.00
2204.1  14264.18  3280.18  23.00
2206.6  14278.44  3279.91  22.97
2209.1  14246.74  3276.55  23.00
2211.6  14236.93  3261.04  22.91
2214.1  14172.61  3266.90  23.05
2216.6  14103.21  3255.17  23.08
2219.1  14137.40  3243.78  22.94
2221.6  14080.86  3229.32  22.93
2224.0  14024.61  3202.94  22.84
2226.5  13983.38  3187.32  22.79
2229.0  13981.89  3192.52  22.83
2231.5  13918.22  3158.47  22.69
2233.9  13896.33  3146.66  22.64
2236.4  13868.98  3125.31  22.53
2238.9  13826.00  3105.17  22.46
2241.3  13828.76  3101.56  22.43
2243.8  13758.80  3063.99  22.27
2246.2  13610.98  3023.80  22.22
2248.7  13571.61  2991.49  22.04
2251.2  13563.12  2970.90  21.90
2253.6  13482.24  2954.24  21.91
2256.1  13474.56  2926.08  21.72
2258.5  13495.78  2910.71  21.57
2260.9  13407.16  2882.64  21.50
2263.4  13372.75  2844.20  21.27
2265.8  13367.17  2820.89  21.10
2268.3  13288.30  2804.15  21.10
2270.7  13342.05  2793.03  20.93
2273.1  13272.94  2759.92  20.79
2275.6  13194.24  2731.52  20.70
2278.0  13232.60  2708.27  20.47
2280.4  13249.81  2688.70  20.29
2282.8  13117.21  2655.97  20.25
2285.3  13103.68  2637.59  20.13
2287.7  13191.09  2625.46  19.90
2290.1  13097.39  2589.43  19.77
2292.5  13047.88  2564.87  19.66
2294.9  13056.31  2551.46  19.54
2297.3  12972.40  2507.47  19.33
2299.7  12875.52  2454.55  19.06
2302.1  12826.01  2456.52  19.15
2304.5  12696.88  2418.64  19.05
2306.9  12602.80  2367.68  18.79
2309.3  12519.08  2335.33  18.65
2311.7  12473.65  2293.51  18.39
2314.1  12315.17  2268.48  18.42
2316.5  12229.76  2252.37  18.42
2318.9  12290.12  2229.67  18.14
2321.3  12265.32  2206.65  17.99
2323.7  12235.57  2202.99  18.00
2326.1  12214.93  2177.54  17.83
2328.4  12270.09  2154.86  17.56
2330.8  12319.08  2159.52  17.53
2333.2  12235.57  2142.91  17.51
2335.6  12168.54  2113.20  17.37
2337.9  12202.83  2097.80  17.19
2340.3  12141.58  2048.79  16.87
2342.7  12039.09  2014.28  16.73
2345.0  12013.82  2027.08  16.87
2347.4  11993.50  1994.67  16.63
2349.7  11798.34  1927.95  16.34
2352.1  11775.76  1948.33  16.55
2354.4  11820.42  1937.11  16.39
2356.8  11728.38  1877.75  16.01
2359.2  11704.33  1864.78  15.93
2361.5  11645.74  1841.33  15.81
2363.8  11633.53  1815.22  15.60
2366.2  11660.03  1809.47  15.52
2368.5  11627.85  1782.97  15.33
2370.9  11603.83  1769.95  15.25
2373.2  11533.95  1776.18  15.40
2375.5  11398.48  1714.98  15.05
2377.9  11373.04  1654.67  14.55
2380.2  11408.35  1669.25  14.63
2382.5  11308.30  1652.67  14.61
2384.8  11261.28  1613.17  14.32
2387.2  11252.00  1623.73  14.43
2389.5  11242.29  1581.76  14.07
2391.8  11232.13  1528.99  13.61
2394.1  11132.13  1549.86  13.92
2396.4  11089.46  1530.53  13.80
2398.7  11160.99  1489.11  13.34
2401.0  11096.58  1481.85  13.35
2403.3  10926.12  1445.86  13.23
2405.6  10921.36  1444.52  13.23
2407.9  10891.74  1441.21  13.23
2410.2  10793.71  1388.69  12.87
2412.5  10752.81  1351.72  12.57
2414.8  10737.29  1338.53  12.47
2417.1  10694.97  1333.43  12.47
2419.4  10638.82  1312.92  12.34
2421.7  10597.44  1301.90  12.29
2424.0  10571.95  1245.10  11.78
2426.2  10576.95  1228.72  11.62
2428.5  10508.39  1240.31  11.80
2430.8  10485.80  1195.37  11.40
2433.1  10443.79  1170.87  11.21
2435.4  10361.94  1160.03  11.20
2437.6  10328.37  1141.38  11.05
2439.9  10224.92  1093.06  10.69
2442.2  10193.49  1088.37  10.68
2444.4  10223.13  1089.32  10.66
2446.7  10173.28  1068.72  10.51
2448.9  10197.11  1061.95  10.41
2451.2  10173.72  1035.05  10.17
2453.4  10028.37  1008.46  10.06
2455.7  9998.26  1013.61  10.14
2457.9  9908.42  991.05  10.00
2460.2  9870.17  945.30  9.58
2462.4  9896.64  933.92  9.44
2464.7  9834.69  921.01  9.36
2466.9  9751.98  898.80  9.22
2469.2  9722.50  900.95  9.27
2471.4  9624.29  862.21  8.96
2473.6  9553.77  839.11  8.78
2475.9  9536.85  855.70  8.97
2478.1  9427.70  838.02  8.89
2480.3  9377.37  809.87  8.64
2482.5  9321.43  819.68  8.79
2484.8  9240.44  798.56  8.64
2487.0  9258.33  753.01  8.13
2489.2  9302.30  773.94  8.32
2491.4  9183.58  750.57  8.17
2493.6  9147.34  702.84  7.68
2495.8  9177.35  741.69  8.08
2498.0  9103.79  743.11  8.16
2500.2  9132.70  704.90  7.72
2502.4  9403.92  745.92  7.93
2504.6  9512.07  735.55  7.73
2506.8  9585.80  701.40  7.32
