/*** Spectra Vista SIG Data ***/
name= RB.sig
comm= Resampled spectral data SIG file reprocesed for matching/overlap;Averaged Ref/Tar of files: RD5B1,RD5B2,RD5B3
data=
346.0  366.28  111.26  30.38
356.0  580.02  129.14  22.27
366.0  764.64  140.36  18.36
376.0  1054.72  143.43  13.60
386.0  1321.48  146.51  11.09
396.0  1668.03  176.77  10.60
406.0  2032.56  174.56  8.59
416.0  2484.09  218.09  8.78
426.0  2825.64  240.62  8.52
436.0  3449.00  279.85  8.11
446.0  4016.12  326.07  8.12
456.0  4559.32  360.27  7.90
466.0  5430.31  431.54  7.95
476.0  6200.82  503.52  8.12
486.0  6683.18  524.32  7.85
496.0  7759.25  624.24  8.05
506.0  8620.16  752.24  8.73
516.0  8958.85  906.23  10.12
526.0  9944.82  1177.99  11.85
536.0  11306.85  1528.05  13.51
546.0  12443.50  1847.37  14.85
556.0  12537.38  1984.78  15.83
566.0  13373.89  2286.09  17.09
576.0  14717.24  2760.79  18.76
586.0  15778.76  3301.68  20.92
596.0  16643.71  3928.64  23.60
606.0  16939.11  4483.38  26.47
616.0  18066.83  5266.67  29.15
626.0  19907.23  6357.51  31.94
636.0  19564.29  6889.29  35.21
646.0  19659.63  6102.84  31.04
656.0  19192.34  5802.37  30.23
666.0  20282.32  5714.40  28.17
676.0  21596.49  6098.40  28.24
686.0  23461.59  9044.60  38.55
696.0  24117.97  13917.11  57.70
706.0  24329.51  16660.22  68.48
716.0  23886.32  17515.42  73.33
726.0  23086.04  17558.84  76.06
736.0  22569.89  17385.75  77.03
746.0  23814.03  18536.35  77.84
756.0  24266.56  19170.72  79.00
766.0  25278.75  20076.38  79.42
776.0  25925.56  20758.24  80.07
786.0  26060.85  21046.86  80.76
796.0  25580.60  20971.71  81.98
806.0  24835.91  20529.71  82.66
816.0  24700.16  20472.71  82.88
826.0  24523.61  20234.08  82.51
836.0  24895.68  20242.61  81.31
846.0  25503.02  20632.32  80.90
856.0  25926.24  20963.18  80.86
866.0  26083.86  21016.97  80.57
876.0  26142.33  20943.04  80.11
886.0  26278.55  20823.95  79.24
896.0  26059.51  20404.64  78.30
906.0  26042.54  20102.10  77.19
916.0  25872.97  19573.39  75.65
926.0  25848.12  18899.59  73.12
936.0  26639.41  18419.77  69.14
946.0  27323.34  17774.19  65.05
956.0  27983.10  16843.41  60.19
966.0  28580.08  16541.01  57.88
976.0  29061.46  16762.49  57.68
986.0  29600.63  17872.76  60.38
996.0  29854.54  18216.48  61.02
1006.0  29773.67  18637.23  62.60
1016.0  29961.72  19388.03  64.71
1026.0  29958.18  20037.04  66.88
1036.0  29727.72  20572.36  69.20
1046.0  29945.01  21324.15  71.21
1056.0  30102.43  21884.32  72.70
1066.0  30105.99  22140.53  73.54
1076.0  29996.46  22102.10  73.68
1086.0  30084.70  21964.04  73.01
1096.0  30105.40  21604.70  71.76
1106.0  30068.25  21081.51  70.11
1116.0  29868.35  20389.35  68.26
1126.0  29809.45  19426.34  65.17
1136.0  29822.39  17737.70  59.48
1146.0  29809.91  15790.96  52.97
1156.0  29735.93  14573.57  49.01
1166.0  29672.84  14081.50  47.46
1176.0  29648.36  13880.49  46.82
1186.0  29704.47  13750.39  46.29
1196.0  29371.18  13493.40  45.94
1206.0  29121.56  13393.95  45.99
1216.0  28966.90  13451.07  46.44
1226.0  28785.60  13565.33  47.13
1236.0  28657.09  13685.25  47.76
1246.0  28484.90  13752.30  48.28
1256.0  28333.73  13788.26  48.66
1266.0  28154.79  13730.56  48.77
1276.0  28214.44  13687.79  48.51
1286.0  28244.54  13523.86  47.88
1296.0  28080.90  13136.30  46.78
1306.0  27749.33  12510.62  45.08
1316.0  27339.86  11738.00  42.93
1326.0  26940.91  10871.46  40.35
1336.0  26516.39  10005.72  37.73
1346.0  26100.07  9223.58  35.34
1356.0  25456.23  8446.81  33.18
1366.0  25028.25  7821.19  31.25
1376.0  24975.46  7111.43  28.47
1386.0  24740.24  5996.03  24.24
1396.0  24477.47  4840.20  19.77
1406.0  24216.63  4003.42  16.53
1416.0  24200.46  3539.40  14.63
1426.0  24158.30  3301.29  13.67
1436.0  24072.41  3198.41  13.29
1446.0  23956.60  3138.19  13.10
1456.0  23813.94  3115.58  13.08
1466.0  23700.42  3142.22  13.26
1476.0  23484.85  3221.76  13.72
1486.0  23331.72  3373.96  14.46
1496.0  23130.98  3560.95  15.39
1506.0  22945.06  3633.91  15.84
1516.0  22702.48  3763.39  16.58
1526.0  22502.83  3839.76  17.06
1536.0  22328.41  3975.56  17.80
1546.0  22104.85  4133.31  18.70
1556.0  21942.04  4287.00  19.54
1566.0  21758.45  4388.20  20.17
1576.0  21478.18  4512.79  21.01
1586.0  21278.88  4578.76  21.52
1596.0  21035.80  4644.62  22.08
1606.0  20794.20  4696.88  22.59
1616.0  20552.01  4748.55  23.11
1626.0  20323.44  4793.44  23.59
1636.0  20065.83  4810.59  23.97
1646.0  19774.62  4805.09  24.30
1656.0  19480.49  4773.59  24.50
1666.0  19194.30  4719.98  24.59
1676.0  18944.19  4642.62  24.51
1686.0  18931.40  4585.68  24.22
1696.0  18711.77  4469.39  23.89
1706.0  18450.64  4314.95  23.39
1716.0  18035.90  4113.77  22.81
1726.0  17776.34  3946.22  22.20
1736.0  17557.88  3842.91  21.89
1746.0  17326.38  3726.72  21.51
1756.0  17015.40  3577.54  21.03
1766.0  16759.66  3448.07  20.57
1776.0  16615.26  3381.30  20.35
1786.0  16444.78  3301.76  20.08
1796.0  16217.15  3235.36  19.95
1806.0  16004.96  3193.09  19.95
1816.0  15766.24  3137.30  19.90
1826.0  15451.08  3070.79  19.87
1836.0  15063.08  2960.52  19.65
1846.0  14855.31  2877.71  19.37
1856.0  14691.59  2729.23  18.58
1866.0  14522.35  2458.18  16.93
1876.0  14253.69  2073.45  14.55
1886.0  14110.56  1706.89  12.10
1896.0  13808.32  1478.33  10.71
1906.0  12793.00  828.88  6.48
1916.0  12616.65  816.25  6.47
1926.0  12521.17  801.70  6.40
1936.0  12420.38  782.77  6.30
1946.0  12399.95  802.96  6.48
1956.0  12267.23  809.74  6.60
1966.0  12255.75  847.23  6.91
1976.0  12167.54  875.75  7.20
1986.0  11984.38  873.14  7.29
1996.0  11804.14  920.62  7.80
2006.0  11722.12  952.12  8.12
2016.0  11520.71  977.13  8.48
2026.0  11331.47  958.73  8.46
2036.0  11153.81  987.37  8.85
2046.0  11015.78  1001.71  9.09
2056.0  10803.98  1006.60  9.32
2066.0  10617.95  1003.28  9.45
2076.0  10467.51  1020.88  9.75
2086.0  10367.19  1030.65  9.94
2096.0  10196.33  1030.68  10.11
2106.0  9977.58  1039.94  10.42
2116.0  9951.76  1058.78  10.64
2126.0  9831.36  1065.67  10.84
2136.0  9625.43  1074.02  11.16
2146.0  9388.88  1076.04  11.46
2156.0  9207.43  1081.81  11.75
2166.0  9064.45  1063.21  11.73
2176.0  8911.97  1063.56  11.93
2186.0  8812.47  1075.91  12.21
2196.0  8746.91  1054.50  12.06
2206.0  8717.01  1064.31  12.21
2216.0  8632.54  1075.51  12.46
2226.0  8558.94  1022.30  11.94
2236.0  8436.18  1025.91  12.16
2246.0  8282.68  972.50  11.74
2256.0  8199.17  922.11  11.25
2266.0  8120.13  869.63  10.71
2276.0  8038.92  841.51  10.47
2286.0  7958.54  785.89  9.87
2296.0  7926.13  768.51  9.70
2306.0  7675.85  689.27  8.98
2316.0  7429.53  698.96  9.41
2326.0  7404.63  674.82  9.11
2336.0  7366.33  640.49  8.69
2346.0  7276.21  645.46  8.87
2356.0  7132.49  616.39  8.64
2366.0  7038.59  576.19  8.19
2376.0  6898.87  577.00  8.36
2386.0  6807.05  534.07  7.85
2396.0  6685.66  544.95  8.15
2406.0  6574.61  495.11  7.53
2416.0  6463.16  497.44  7.70
2426.0  6354.84  469.15  7.38
2436.0  6210.96  465.74  7.50
2446.0  6104.75  433.69  7.10
2456.0  6017.59  420.14  6.98
2466.0  5854.98  383.47  6.55
2476.0  5727.20  392.26  6.85
2486.0  5577.85  357.95  6.42
2496.0  5547.28  351.13  6.33
2506.0  5804.94  377.34  6.50
