/*** Spectra Vista SIG Data ***/
name= RB.sig
comm= SIG file reprocesed for matching/overlap;Averaged Ref/Tar of files: RD5B1,RD5B2,RD5B3
data=
346.4  366.28  111.26  30.38
347.9  400.03  105.01  26.25
349.5  432.12  106.50  24.65
351.1  468.00  113.57  24.27
352.6  496.51  113.43  22.85
354.2  520.33  115.19  22.14
355.7  575.84  128.86  22.38
357.3  598.14  130.38  21.80
358.8  616.87  137.47  22.29
360.4  668.33  141.64  21.19
361.9  686.05  132.80  19.36
363.5  715.01  126.96  17.76
365.1  743.78  139.62  18.77
366.6  778.54  140.86  18.09
368.2  824.27  136.54  16.56
369.7  873.39  142.35  16.30
371.3  928.49  132.58  14.28
372.8  977.74  146.08  14.94
374.4  1016.27  141.51  13.92
375.9  1052.58  142.99  13.58
377.4  1084.71  149.62  13.79
379.0  1129.79  153.19  13.56
380.5  1157.14  149.36  12.91
382.1  1186.43  144.99  12.22
383.6  1234.64  145.15  11.76
385.2  1293.88  141.90  10.97
386.7  1345.63  150.54  11.19
388.3  1410.38  147.83  10.48
389.8  1464.46  155.55  10.62
391.3  1527.57  156.70  10.26
392.9  1567.60  174.12  11.11
394.4  1609.87  170.53  10.59
395.9  1662.63  175.84  10.58
397.5  1749.05  190.79  10.91
399.0  1827.74  183.34  10.03
400.6  1876.29  181.50  9.67
402.1  1904.04  175.10  9.20
403.6  1943.17  171.66  8.83
405.1  1994.81  173.96  8.72
406.7  2061.92  175.02  8.49
408.2  2135.06  182.06  8.53
409.7  2198.56  189.65  8.63
411.3  2272.05  194.92  8.58
412.8  2335.64  201.61  8.63
414.3  2399.77  207.87  8.66
415.8  2475.00  216.33  8.74
417.4  2547.71  230.40  9.04
418.9  2612.23  219.94  8.42
420.4  2658.25  228.98  8.61
421.9  2705.56  230.06  8.50
423.5  2743.63  232.25  8.47
425.0  2788.02  239.13  8.58
426.5  2844.45  241.37  8.49
428.0  2917.63  239.46  8.21
429.5  3009.90  245.95  8.17
431.1  3112.45  252.58  8.12
432.6  3227.88  259.92  8.05
434.1  3329.29  273.09  8.20
435.6  3423.98  277.61  8.11
437.1  3517.80  286.00  8.13
438.6  3607.74  291.35  8.08
440.1  3694.39  298.96  8.09
441.6  3790.73  305.72  8.06
443.1  3873.83  311.58  8.04
444.7  3959.99  321.95  8.13
446.2  4024.76  326.70  8.12
447.7  4101.41  330.53  8.06
449.2  4174.20  340.42  8.16
450.7  4238.00  346.39  8.17
452.2  4313.18  352.39  8.17
453.7  4393.64  351.39  8.00
455.2  4491.99  354.45  7.89
456.7  4618.24  365.37  7.91
458.2  4761.06  375.36  7.88
459.7  4899.13  388.97  7.94
461.2  5044.37  397.48  7.88
462.7  5165.05  407.88  7.90
464.2  5287.79  420.90  7.96
465.7  5408.14  429.57  7.94
467.2  5518.98  439.41  7.96
468.7  5631.00  450.67  8.00
470.2  5705.20  459.49  8.05
471.7  5821.13  474.05  8.14
473.2  6011.22  491.36  8.17
474.6  6153.75  504.73  8.20
476.1  6204.18  503.43  8.11
477.6  6220.94  498.25  8.01
479.1  6250.52  496.76  7.95
480.6  6293.37  498.11  7.91
482.1  6374.96  500.32  7.85
483.6  6474.12  511.59  7.90
485.1  6599.29  518.68  7.86
486.6  6739.10  528.08  7.84
488.0  6898.13  535.82  7.77
489.5  7058.36  552.76  7.83
491.0  7224.81  568.03  7.86
492.5  7392.87  582.12  7.87
494.0  7557.79  599.28  7.93
495.4  7702.20  616.44  8.00
496.9  7844.83  635.93  8.11
498.4  7990.29  646.76  8.09
499.9  8131.50  666.85  8.20
501.4  8263.45  690.32  8.35
502.8  8392.79  707.34  8.43
504.3  8499.60  726.24  8.54
505.8  8611.18  749.03  8.70
507.2  8674.01  771.52  8.89
508.7  8728.20  788.02  9.03
510.2  8764.92  802.70  9.16
511.6  8789.76  825.38  9.39
513.1  8840.43  850.48  9.62
514.6  8904.34  876.89  9.85
516.0  8958.85  906.23  10.12
517.5  9056.55  932.13  10.29
519.0  9171.31  974.06  10.62
520.5  9287.32  1008.27  10.86
521.9  9437.16  1051.57  11.14
523.4  9612.27  1093.11  11.37
524.8  9785.79  1141.84  11.67
526.3  9984.58  1187.03  11.89
527.8  10184.06  1238.81  12.16
529.2  10366.76  1289.57  12.44
530.7  10567.61  1340.35  12.68
532.1  10746.40  1389.19  12.93
533.6  10959.02  1442.11  13.16
535.0  11168.56  1493.19  13.37
536.5  11376.00  1545.48  13.59
538.0  11592.92  1594.66  13.76
539.4  11785.91  1639.08  13.91
540.9  12037.93  1703.74  14.15
542.3  12246.63  1767.47  14.43
543.8  12400.56  1812.52  14.62
545.2  12445.48  1836.83  14.76
546.6  12442.01  1855.28  14.91
548.1  12455.19  1871.19  15.02
549.5  12460.55  1892.22  15.19
551.0  12456.77  1910.81  15.34
552.4  12484.13  1929.42  15.45
553.9  12491.52  1949.43  15.61
555.3  12509.64  1971.92  15.76
556.8  12569.08  1999.48  15.91
558.2  12630.94  2030.18  16.07
559.6  12713.51  2062.98  16.23
561.1  12831.00  2102.75  16.39
562.5  12959.42  2150.98  16.60
564.0  13129.35  2202.52  16.78
565.4  13288.41  2258.11  16.99
566.8  13487.87  2323.39  17.23
568.3  13678.39  2386.00  17.44
569.7  13879.32  2454.14  17.68
571.1  14074.77  2521.92  17.92
572.6  14269.77  2586.81  18.13
574.0  14463.08  2662.44  18.41
575.4  14650.03  2730.83  18.64
576.9  14818.07  2805.73  18.93
578.3  14977.46  2873.82  19.19
579.7  15131.24  2948.21  19.48
581.1  15254.19  3011.35  19.74
582.6  15387.18  3085.80  20.05
584.0  15508.86  3160.49  20.38
585.4  15681.05  3255.29  20.76
586.8  15909.04  3363.54  21.14
588.3  16162.38  3485.35  21.56
589.7  16371.81  3598.61  21.98
591.1  16519.39  3690.46  22.34
592.5  16589.78  3771.44  22.73
594.0  16627.80  3837.94  23.08
595.4  16637.76  3899.58  23.44
596.8  16651.64  3967.39  23.83
598.2  16659.51  4036.57  24.23
599.6  16659.36  4100.81  24.62
601.0  16705.59  4181.52  25.03
602.4  16752.94  4262.58  25.44
603.9  16822.23  4352.47  25.87
605.3  16905.11  4438.68  26.26
606.7  16973.10  4528.08  26.68
608.1  17114.04  4628.70  27.05
609.5  17255.15  4736.32  27.45
610.9  17434.91  4848.29  27.81
612.3  17598.49  4960.96  28.19
613.7  17818.60  5092.09  28.58
615.1  17967.42  5197.18  28.93
616.5  18122.06  5305.27  29.28
617.9  18356.64  5440.60  29.64
619.3  18578.68  5569.35  29.98
620.7  18848.67  5719.47  30.34
622.1  19119.58  5876.83  30.74
623.5  19414.06  6039.97  31.11
624.9  19741.18  6226.92  31.54
626.3  19952.52  6393.13  32.04
627.7  19741.37  6440.22  32.62
629.1  19544.02  6485.61  33.18
630.5  19457.12  6556.30  33.70
631.9  19461.81  6651.90  34.18
633.3  19457.49  6729.95  34.59
634.7  19533.17  6826.57  34.95
636.1  19566.68  6894.11  35.23
637.5  19597.55  6911.49  35.27
638.9  19677.50  6840.57  34.76
640.2  19731.43  6731.75  34.12
641.6  19754.28  6577.90  33.30
643.0  19715.36  6410.88  32.52
644.4  19707.26  6271.39  31.82
645.8  19650.11  6115.68  31.12
647.2  19716.78  6025.81  30.56
648.5  19765.84  5971.04  30.21
649.9  19671.60  5915.00  30.07
651.3  19608.23  5894.92  30.06
652.7  19503.68  5910.56  30.30
654.1  19390.95  5875.79  30.30
655.5  19238.75  5825.42  30.28
656.8  19118.09  5765.50  30.16
658.2  19225.93  5768.58  30.00
659.6  19449.31  5799.13  29.82
660.9  19643.18  5787.09  29.46
662.3  19825.21  5779.71  29.15
663.7  20008.80  5752.88  28.75
665.0  20165.89  5725.76  28.39
666.4  20328.89  5709.86  28.09
667.8  20535.62  5706.87  27.79
669.1  20711.76  5716.73  27.60
670.5  20914.18  5748.96  27.49
671.9  21055.86  5791.97  27.51
673.2  21237.33  5856.88  27.58
674.6  21400.77  5960.32  27.85
676.0  21596.49  6098.40  28.24
677.3  21793.24  6259.86  28.72
678.7  21992.69  6479.55  29.46
680.0  22269.19  6766.92  30.39
681.4  22542.00  7148.34  31.71
682.8  22829.63  7600.02  33.29
684.1  23112.18  8150.06  35.26
685.5  23364.31  8778.10  37.57
686.8  23617.23  9471.00  40.10
688.2  23841.32  10206.19  42.81
689.5  23927.84  10915.43  45.62
690.9  23997.39  11617.19  48.41
692.2  24047.78  12280.80  51.07
693.6  24110.83  12917.08  53.57
694.9  24095.99  13470.13  55.90
696.2  24121.97  13998.38  58.03
697.6  24149.95  14482.66  59.97
698.9  24174.48  14923.75  61.73
700.3  24215.57  15335.41  63.33
701.6  24264.40  15720.26  64.79
703.0  24323.35  16066.01  66.05
704.3  24329.34  16345.90  67.19
705.6  24327.41  16596.41  68.22
707.0  24334.75  16819.73  69.12
708.3  24282.08  16971.75  69.89
709.6  24223.21  17097.95  70.58
711.0  24124.28  17189.33  71.25
712.3  24015.02  17253.65  71.85
713.6  23977.17  17351.49  72.37
714.9  23907.38  17437.67  72.94
716.3  23880.58  17536.63  73.43
717.6  23876.83  17659.47  73.96
718.9  23805.06  17722.38  74.45
720.2  23675.16  17720.07  74.85
721.6  23576.15  17715.55  75.14
722.9  23446.45  17688.24  75.44
724.2  23274.82  17625.26  75.73
725.5  23133.68  17575.11  75.97
726.8  23009.81  17532.80  76.20
728.1  22933.91  17506.38  76.33
729.5  22856.87  17478.49  76.47
730.8  22796.53  17461.24  76.60
732.1  22719.29  17429.64  76.72
733.4  22660.56  17405.01  76.81
734.7  22602.67  17386.21  76.92
736.0  22569.89  17385.75  77.03
737.3  22520.76  17374.41  77.15
738.6  22554.56  17433.61  77.30
739.9  22633.16  17523.86  77.43
741.2  22698.59  17586.66  77.48
742.5  22841.25  17712.64  77.55
743.8  23091.34  17932.53  77.66
745.1  23491.07  18253.68  77.70
746.4  23957.57  18661.98  77.90
747.7  24466.55  19081.09  77.99
749.0  24948.63  19507.57  78.19
750.3  25229.30  19783.75  78.42
751.6  25175.69  19805.74  78.67
752.9  24925.64  19655.48  78.86
754.2  24630.59  19441.03  78.93
755.4  24314.44  19204.79  78.99
756.7  24210.69  19130.97  79.02
758.0  24235.24  19152.52  79.03
759.3  24394.18  19286.83  79.06
760.6  24621.52  19470.11  79.08
761.9  24823.09  19663.11  79.21
763.1  24955.30  19779.84  79.26
764.4  25125.21  19926.38  79.31
765.7  25257.38  20054.67  79.40
767.0  25349.99  20148.77  79.48
768.2  25431.84  20227.65  79.54
769.5  25509.93  20309.98  79.62
770.8  25646.87  20434.38  79.68
772.0  25674.66  20489.15  79.80
773.3  25762.96  20576.70  79.87
774.6  25839.71  20673.73  80.01
775.8  25921.43  20747.11  80.04
777.1  25948.26  20819.45  80.23
778.4  25918.05  20814.89  80.31
779.6  25945.86  20848.39  80.35
780.9  25904.00  20845.87  80.47
782.1  25811.51  20796.36  80.57
783.4  25819.04  20828.29  80.67
784.6  25849.06  20849.88  80.66
785.9  26028.56  21018.50  80.75
787.1  26416.14  21358.87  80.86
788.4  26716.91  21688.88  81.18
789.6  26732.54  21763.93  81.41
790.9  26499.75  21614.01  81.56
792.1  26215.36  21407.58  81.66
793.4  25939.41  21211.61  81.77
794.6  25766.06  21081.96  81.82
795.8  25608.38  20990.99  81.97
797.1  25427.85  20865.66  82.06
798.3  25301.10  20785.99  82.15
799.5  25235.55  20747.42  82.22
800.8  25155.70  20713.64  82.34
802.0  25074.70  20667.85  82.43
803.2  24986.56  20602.76  82.46
804.5  24925.76  20575.57  82.55
805.7  24855.66  20537.58  82.63
806.9  24776.64  20506.09  82.76
808.1  24708.89  20460.50  82.81
809.4  24677.19  20447.19  82.86
810.6  24617.78  20399.17  82.86
811.8  24606.91  20382.99  82.83
813.0  24601.75  20414.91  82.98
814.2  24620.30  20413.73  82.91
815.4  24684.78  20462.36  82.89
816.6  24715.54  20483.06  82.88
817.9  24752.29  20523.07  82.91
819.1  24717.85  20489.83  82.89
820.3  24615.89  20427.00  82.98
821.5  24558.22  20369.88  82.95
822.7  24525.20  20317.81  82.84
823.9  24512.51  20285.04  82.75
825.1  24512.73  20257.60  82.64
826.3  24527.23  20226.24  82.46
827.5  24554.23  20207.87  82.30
828.7  24585.24  20197.76  82.15
829.9  24620.63  20186.67  81.99
831.0  24677.45  20191.66  81.82
832.2  24735.00  20211.42  81.71
833.4  24800.15  20209.22  81.49
834.6  24827.34  20221.25  81.45
835.8  24886.58  20238.12  81.32
837.0  24941.18  20265.05  81.25
838.1  25036.55  20298.38  81.07
839.3  25073.20  20336.47  81.11
840.5  25138.07  20367.47  81.02
841.7  25214.76  20421.56  80.99
842.9  25311.78  20486.81  80.94
844.0  25352.29  20536.84  81.01
845.2  25454.19  20597.48  80.92
846.4  25527.43  20649.74  80.89
847.5  25656.16  20741.79  80.85
848.7  25745.00  20822.95  80.88
849.9  25879.71  20905.37  80.78
851.0  25913.04  20950.13  80.85
852.2  25966.07  20973.11  80.77
853.3  25941.98  20980.98  80.88
854.5  25934.86  20960.24  80.82
855.6  25916.94  20961.08  80.88
856.8  25944.85  20967.38  80.82
857.9  25943.54  20978.88  80.86
859.1  25996.60  21020.48  80.86
860.2  26027.46  21012.04  80.73
861.4  26023.97  21020.39  80.77
862.5  26059.24  21020.45  80.66
863.7  26115.12  21047.67  80.60
864.8  26101.25  21029.96  80.57
865.9  26082.46  21017.11  80.58
867.1  26099.25  21015.43  80.52
868.2  26099.69  21024.36  80.55
869.3  26128.19  21010.73  80.41
870.5  26099.47  20981.62  80.39
871.6  26087.08  20970.30  80.39
872.7  26136.21  20993.45  80.32
873.9  26148.82  21002.80  80.32
875.0  26142.73  20947.57  80.13
876.1  26142.29  20942.59  80.11
877.2  26184.05  20920.09  79.90
878.3  26169.01  20900.16  79.87
879.4  26191.11  20911.76  79.84
880.5  26214.48  20896.51  79.71
881.7  26220.35  20883.89  79.65
882.8  26271.44  20872.42  79.45
883.9  26272.50  20894.23  79.53
885.0  26275.91  20861.02  79.39
886.1  26278.81  20820.24  79.23
887.2  26194.66  20772.53  79.30
888.3  26154.69  20688.75  79.10
889.4  26083.75  20599.48  78.97
890.5  26060.47  20526.60  78.77
891.6  26043.45  20509.95  78.75
892.7  26025.13  20459.42  78.61
893.8  26046.70  20450.94  78.52
894.9  26070.72  20439.03  78.40
896.0  26059.51  20404.64  78.30
897.0  26054.12  20381.67  78.23
898.1  26079.30  20366.87  78.10
899.2  26095.96  20325.08  77.89
900.3  26052.56  20273.63  77.82
901.4  26029.33  20235.19  77.74
902.4  26018.83  20220.34  77.71
903.5  26017.27  20169.84  77.52
904.6  26012.16  20129.95  77.39
905.7  26050.43  20112.40  77.21
906.7  26024.14  20078.06  77.15
907.8  26076.86  20069.90  76.96
908.9  26057.48  19994.73  76.73
909.9  26017.06  19944.14  76.66
911.0  26009.49  19896.15  76.50
912.1  25979.15  19807.69  76.24
913.1  25944.88  19762.63  76.17
914.2  25856.17  19672.34  76.08
915.2  25844.13  19627.02  75.94
916.3  25883.78  19553.28  75.54
917.3  25847.25  19528.80  75.55
918.4  25819.06  19443.75  75.31
919.4  25792.96  19381.44  75.14
920.5  25804.34  19277.16  74.71
921.5  25824.68  19221.79  74.43
922.6  25820.42  19129.83  74.09
923.6  25802.74  19072.78  73.92
924.7  25837.63  19018.90  73.61
925.7  25830.51  18912.33  73.22
926.7  25889.20  18869.86  72.89
927.8  25949.67  18781.15  72.38
928.8  26061.51  18766.38  72.01
929.9  26114.55  18702.99  71.62
930.9  26214.58  18694.25  71.31
931.9  26363.30  18702.64  70.94
932.9  26568.63  18737.63  70.53
934.0  26604.58  18629.26  70.02
935.0  26610.78  18536.23  69.66
936.0  26639.41  18419.77  69.14
937.0  26632.91  18299.27  68.71
938.1  26589.57  18175.51  68.36
939.1  26594.73  18080.73  67.99
940.1  26647.30  18015.76  67.61
941.1  26757.94  18012.50  67.32
942.1  26950.86  17999.74  66.79
943.1  27064.46  17951.66  66.33
944.1  27200.04  17919.93  65.88
945.2  27250.86  17849.55  65.50
946.2  27341.46  17755.35  64.94
947.2  27385.31  17672.83  64.53
948.2  27528.14  17582.47  63.87
949.2  27562.84  17475.58  63.40
950.2  27601.23  17392.03  63.01
951.2  27696.06  17299.75  62.46
952.2  27776.58  17190.87  61.89
953.2  27874.44  17108.16  61.38
954.2  27994.28  17024.70  60.81
955.2  28013.52  16913.09  60.37
956.2  27975.49  16825.99  60.15
957.2  28074.45  16763.25  59.71
958.2  28163.05  16685.84  59.25
959.2  28188.45  16636.68  59.02
960.1  28244.69  16638.75  58.91
961.1  28322.00  16609.07  58.64
962.1  28304.06  16575.13  58.56
963.1  28357.97  16586.08  58.49
964.1  28464.51  16555.74  58.16
965.1  28543.56  16591.58  58.13
966.1  28584.14  16535.39  57.85
967.0  28655.80  16575.12  57.84
968.0  28697.14  16591.20  57.81
969.0  28718.80  16586.43  57.75
970.0  28760.47  16589.69  57.68
971.0  28834.42  16578.37  57.50
971.9  28848.78  16667.66  57.78
972.9  28890.31  16690.00  57.77
973.9  28948.56  16685.33  57.64
974.9  29046.70  16662.24  57.36
975.8  29063.68  16749.46  57.63
976.8  29052.58  16814.60  57.88
977.8  29165.54  16846.25  57.76
978.8  29197.88  16929.66  57.98
979.7  29189.32  16912.20  57.94
981.4  29653.05  17830.09  60.13
985.3  29580.67  17849.80  60.34
989.3  29694.74  17980.99  60.55
993.3  29811.28  18143.63  60.86
997.2  29873.76  18248.86  61.09
1001.2  29847.48  18394.00  61.63
1005.2  29766.32  18583.05  62.43
1009.1  29802.16  18847.18  63.24
1013.1  29912.80  19160.70  64.06
1017.1  29980.27  19474.26  64.96
1021.0  29997.45  19732.90  65.78
1025.0  29986.05  19985.20  66.65
1029.0  29874.56  20192.54  67.59
1032.9  29757.39  20381.92  68.49
1036.9  29719.10  20627.65  69.41
1040.9  29786.91  20924.44  70.25
1044.8  29914.06  21241.15  71.01
1048.8  30017.23  21517.83  71.68
1052.7  30081.05  21750.12  72.31
1056.7  30106.96  21912.78  72.78
1060.7  30124.55  22039.81  73.16
1064.6  30126.20  22134.76  73.47
1068.6  30068.46  22151.24  73.67
1072.5  30024.99  22133.26  73.72
1076.5  29992.38  22097.65  73.68
1080.4  29983.51  22039.53  73.51
1084.4  30049.89  21992.82  73.19
1088.3  30134.74  21922.67  72.75
1092.3  30115.74  21773.26  72.30
1096.2  30104.84  21595.59  71.73
1100.2  30142.18  21421.39  71.07
1104.1  30082.71  21183.72  70.42
1108.1  30052.27  20968.55  69.77
1112.0  29977.43  20715.20  69.10
1116.0  29868.35  20389.35  68.26
1119.9  29779.89  20034.10  67.27
1123.9  29822.35  19703.83  66.07
1127.8  29798.40  19188.48  64.39
1131.8  29786.58  18539.46  62.24
1135.7  29821.64  17800.34  59.69
1139.6  29831.38  16986.21  56.94
1143.6  29819.95  16202.40  54.33
1147.5  29803.64  15533.81  52.12
1151.4  29713.98  14971.41  50.39
1155.4  29731.43  14609.36  49.14
1159.3  29760.66  14376.74  48.31
1163.2  29674.15  14159.92  47.72
1167.2  29672.28  14047.90  47.34
1171.1  29681.80  13977.26  47.09
1175.0  29651.52  13898.60  46.87
1179.0  29638.87  13826.15  46.65
1182.9  29697.98  13789.88  46.43
1186.8  29706.14  13740.20  46.25
1190.7  29571.10  13626.96  46.08
1194.7  29411.94  13517.42  45.96
1198.6  29289.65  13445.36  45.90
1202.5  29196.66  13409.58  45.93
1206.4  29112.98  13392.16  46.00
1210.3  29056.59  13403.48  46.13
1214.2  29008.58  13438.32  46.33
1218.2  28915.95  13466.66  46.57
1222.1  28833.10  13508.29  46.85
1226.0  28785.60  13565.33  47.13
1229.9  28734.48  13619.94  47.40
1233.8  28673.70  13658.46  47.63
1237.7  28644.25  13705.96  47.85
1241.6  28596.57  13745.91  48.07
1245.5  28494.07  13750.58  48.26
1249.4  28422.55  13764.02  48.43
1253.3  28356.92  13780.12  48.60
1257.2  28323.43  13791.88  48.69
1261.1  28264.79  13779.07  48.75
1265.0  28184.91  13748.20  48.78
1268.9  28067.43  13679.39  48.74
1272.8  28106.70  13672.40  48.64
1276.7  28238.01  13691.16  48.48
1280.6  28297.17  13663.24  48.28
1284.5  28250.81  13564.20  48.01
1288.4  28234.52  13459.31  47.67
1292.3  28165.50  13313.67  47.27
1296.2  28076.33  13126.71  46.75
1300.1  27971.71  12908.85  46.15
1303.9  27830.79  12656.45  45.48
1307.8  27679.51  12385.62  44.75
1311.7  27513.83  12089.61  43.94
1315.6  27356.90  11772.57  43.03
1319.5  27190.78  11435.54  42.06
1323.3  27036.43  11100.39  41.06
1327.2  26898.46  10769.71  40.04
1331.1  26745.75  10432.21  39.01
1335.0  26551.82  10085.15  37.98
1338.8  26417.20  9783.33  37.03
1342.7  26306.22  9501.64  36.12
1346.5  26068.84  9181.45  35.22
1350.4  25867.11  8886.45  34.35
1354.3  25587.95  8579.36  33.53
1358.1  25293.52  8283.06  32.75
1362.0  25095.25  8040.64  32.04
1365.8  25024.00  7830.91  31.29
1369.7  25106.98  7641.29  30.43
1373.5  25078.13  7363.29  29.36
1377.4  24917.97  6970.38  27.97
1381.2  24782.40  6527.99  26.34
1385.1  24754.66  6099.76  24.64
1389.0  24692.16  5650.28  22.88
1392.8  24567.88  5186.72  21.11
1396.6  24460.52  4775.23  19.52
1400.5  24320.99  4403.19  18.10
1404.3  24225.89  4104.72  16.94
1408.2  24204.64  3872.32  16.00
1412.0  24174.50  3679.57  15.22
1415.8  24201.79  3545.49  14.65
1419.6  24176.54  3429.78  14.19
1423.5  24162.30  3343.32  13.84
1427.3  24156.22  3279.44  13.58
1431.1  24149.78  3238.73  13.41
1434.9  24082.82  3205.63  13.31
1438.8  24045.91  3180.04  13.22
1442.6  24021.66  3160.42  13.16
1446.4  23948.95  3135.57  13.09
1450.2  23899.20  3124.51  13.07
1454.0  23823.72  3111.44  13.06
1457.8  23805.13  3119.31  13.10
1461.6  23794.65  3132.39  13.16
1465.4  23719.51  3140.74  13.24
1469.2  23598.58  3150.12  13.35
1473.0  23505.47  3178.69  13.52
1476.8  23479.35  3233.24  13.77
1480.7  23444.07  3285.56  14.01
1484.4  23358.60  3343.24  14.31
1488.2  23294.76  3416.20  14.67
1492.0  23212.99  3484.52  15.01
1495.8  23134.48  3558.10  15.38
1499.6  23068.04  3612.21  15.66
1503.4  22989.82  3625.72  15.77
1507.2  22924.40  3637.69  15.87
1510.9  22832.54  3686.32  16.15
1514.7  22729.47  3747.50  16.49
1518.5  22650.58  3793.94  16.75
1522.3  22564.73  3812.51  16.90
1526.0  22502.83  3839.76  17.06
1529.8  22457.39  3896.21  17.35
1533.6  22379.96  3945.09  17.63
1537.3  22300.49  3992.06  17.90
1541.1  22218.14  4045.05  18.21
1544.8  22130.40  4110.40  18.57
1548.6  22049.49  4182.96  18.97
1552.4  21992.28  4244.25  19.30
1556.1  21940.64  4288.19  19.54
1559.9  21881.16  4311.60  19.70
1563.6  21806.79  4348.78  19.94
1567.3  21732.27  4409.55  20.29
1571.1  21585.13  4451.23  20.62
1574.8  21494.94  4497.11  20.92
1578.6  21441.85  4546.75  21.21
1582.3  21360.05  4570.16  21.40
1586.0  21278.88  4578.76  21.52
1589.8  21182.42  4605.88  21.74
1593.5  21087.16  4631.86  21.97
1597.2  21011.15  4650.74  22.13
1600.9  20910.91  4666.62  22.32
1604.7  20817.19  4686.65  22.51
1608.4  20751.75  4715.76  22.72
1612.1  20653.79  4731.51  22.91
1615.8  20554.46  4747.04  23.09
1619.5  20509.10  4775.01  23.28
1623.2  20415.20  4789.37  23.46
1626.9  20293.94  4794.75  23.63
1630.6  20187.64  4802.09  23.79
1634.3  20108.09  4811.82  23.93
1638.0  20016.12  4809.14  24.03
1641.7  19907.78  4805.60  24.14
1645.4  19793.59  4806.36  24.28
1649.1  19676.58  4798.51  24.39
1652.8  19573.89  4789.67  24.47
1656.4  19468.81  4771.58  24.51
1660.1  19373.12  4757.85  24.56
1663.8  19253.37  4735.46  24.60
1667.5  19154.03  4709.43  24.59
1671.1  19073.44  4686.79  24.57
1674.8  18955.63  4648.12  24.52
1678.5  18920.35  4631.15  24.48
1682.1  18926.99  4610.99  24.36
1685.8  18934.59  4587.56  24.23
1689.5  18875.64  4552.71  24.12
1693.1  18777.51  4505.37  23.99
1696.8  18693.63  4459.46  23.86
1700.4  18605.80  4409.08  23.70
1704.0  18533.22  4355.03  23.50
1707.7  18380.44  4280.89  23.29
1711.3  18186.09  4199.36  23.09
1715.0  18064.01  4132.45  22.88
1718.6  17962.81  4065.21  22.63
1722.2  17869.77  4006.11  22.42
1725.9  17778.98  3947.67  22.20
1729.5  17683.82  3895.28  22.03
1733.1  17615.86  3861.59  21.92
1736.7  17543.89  3838.40  21.88
1740.3  17426.02  3799.27  21.80
1744.0  17375.79  3758.53  21.63
1747.5  17289.32  3702.86  21.42
1751.2  17148.24  3643.23  21.25
1754.8  17043.21  3594.20  21.09
1758.4  16959.78  3544.21  20.90
1762.0  16844.84  3491.13  20.73
1765.5  16763.61  3451.31  20.59
1769.1  16735.20  3428.00  20.48
1772.7  16687.95  3409.58  20.43
1776.3  16608.65  3378.73  20.34
1779.9  16528.93  3341.26  20.21
1783.5  16504.40  3324.03  20.14
1787.0  16420.93  3292.85  20.05
1790.6  16313.97  3258.44  19.97
1794.2  16250.54  3241.83  19.95
1797.8  16183.76  3228.88  19.95
1801.3  16118.56  3217.31  19.96
1804.9  16020.38  3196.38  19.95
1808.4  15971.30  3185.90  19.95
1812.0  15882.75  3163.88  19.92
1815.5  15784.84  3140.47  19.90
1819.1  15650.89  3117.68  19.92
1822.6  15532.45  3099.56  19.96
1826.2  15446.30  3069.10  19.87
1829.7  15337.22  3028.02  19.74
1833.2  15178.78  2992.33  19.71
1836.8  15030.02  2951.43  19.64
1840.3  14950.04  2929.13  19.59
1843.8  14886.20  2901.78  19.49
1847.3  14837.06  2863.49  19.30
1850.8  14793.41  2827.77  19.12
1854.3  14722.56  2761.24  18.76
1857.8  14658.80  2695.33  18.39
1861.3  14629.20  2630.33  17.98
1864.8  14572.84  2508.02  17.21
1868.3  14425.58  2362.65  16.38
1871.8  14284.80  2237.44  15.66
1875.3  14255.61  2101.34  14.74
1878.8  14246.03  1961.86  13.77
1882.3  14193.40  1848.59  13.02
1885.8  14118.50  1713.28  12.14
1889.3  13979.52  1601.47  11.46
1892.7  13865.36  1516.99  10.94
1896.2  13804.86  1475.99  10.69
1899.7  13707.11  1456.27  10.62
1901.7  12697.20  864.12  6.81
1904.5  12812.38  835.82  6.52
1907.2  12777.50  823.33  6.44
1910.0  12693.31  819.99  6.46
1912.7  12674.55  810.01  6.39
1915.5  12622.22  820.41  6.50
1918.2  12592.16  797.97  6.34
1921.0  12470.84  786.23  6.30
1923.7  12502.92  819.30  6.55
1926.5  12525.14  797.88  6.37
1929.2  12499.59  788.84  6.31
1932.0  12466.20  799.48  6.41
1934.7  12450.39  784.79  6.30
1937.4  12388.06  780.59  6.30
1940.2  12333.29  776.53  6.30
1942.9  12377.93  783.58  6.33
1945.6  12406.16  800.30  6.45
1948.3  12364.25  818.27  6.62
1951.1  12353.04  807.68  6.54
1953.8  12345.00  797.00  6.46
1956.5  12249.55  812.64  6.63
1959.2  12291.89  815.27  6.63
1961.9  12307.40  822.48  6.68
1964.6  12224.28  845.89  6.92
1967.3  12284.97  848.47  6.91
1970.0  12156.72  846.56  6.96
1972.8  12093.19  864.85  7.15
1975.5  12180.79  877.02  7.20
1978.2  12109.24  870.16  7.19
1980.9  12027.29  890.05  7.40
1983.5  11996.88  887.05  7.39
1986.2  11983.38  872.03  7.28
1988.9  11983.38  901.13  7.52
1991.6  11899.51  905.69  7.61
1994.3  11798.84  904.05  7.66
1997.0  11807.25  930.36  7.88
1999.7  11770.96  926.59  7.87
2002.3  11768.44  929.16  7.90
2005.0  11742.55  951.22  8.10
2007.7  11687.40  953.64  8.16
2010.4  11651.26  944.06  8.10
2013.0  11630.36  958.77  8.24
2015.7  11528.64  978.48  8.49
2018.4  11457.30  966.36  8.43
2021.0  11452.33  967.11  8.44
2023.7  11380.16  964.84  8.48
2026.4  11323.00  957.67  8.46
2029.0  11263.54  977.52  8.68
2031.7  11193.43  988.65  8.83
2034.3  11193.43  983.01  8.78
2037.0  11130.51  989.94  8.89
2039.6  11076.09  991.23  8.95
2042.3  11047.98  981.04  8.88
2044.9  11026.46  995.78  9.03
2047.5  11001.21  1009.80  9.18
2050.2  10900.40  1004.27  9.21
2052.8  10894.80  1008.00  9.25
2055.4  10822.84  1006.73  9.30
2058.1  10738.00  1006.13  9.37
2060.7  10718.83  1007.13  9.40
2063.3  10653.43  1005.06  9.43
2065.9  10619.50  1003.14  9.45
2068.6  10577.63  1006.86  9.52
2071.2  10537.83  1011.84  9.60
2073.8  10490.95  1006.47  9.59
2076.4  10463.25  1023.50  9.78
2079.0  10439.15  1033.14  9.90
2081.6  10423.40  1021.24  9.80
2084.2  10414.77  1028.97  9.88
2086.8  10346.04  1031.40  9.97
2089.4  10282.92  1032.54  10.04
2092.1  10234.00  1038.89  10.15
2094.7  10195.43  1020.77  10.01
2097.2  10197.17  1039.83  10.20
2099.8  10202.45  1069.40  10.48
2102.4  10082.46  1045.40  10.37
2105.0  9986.40  1033.60  10.35
2107.6  9963.47  1050.09  10.54
2110.2  9945.83  1060.89  10.67
2112.8  9950.08  1052.75  10.58
2115.3  9950.34  1056.52  10.62
2117.9  9955.62  1064.91  10.70
2120.5  9928.49  1077.58  10.85
2123.1  9866.03  1083.23  10.98
2125.6  9842.13  1065.91  10.83
2128.2  9772.14  1064.33  10.89
2130.8  9719.78  1077.38  11.08
2133.3  9694.67  1070.67  11.04
2135.9  9628.08  1073.71  11.15
2138.4  9561.93  1081.43  11.31
2141.0  9493.76  1066.62  11.23
2143.6  9481.01  1067.12  11.26
2146.1  9385.04  1076.41  11.47
2148.7  9294.55  1084.61  11.67
2151.2  9319.20  1077.51  11.56
2153.8  9286.22  1081.18  11.64
2156.3  9196.68  1081.90  11.76
2158.8  9176.01  1062.22  11.58
2161.4  9166.37  1068.28  11.65
2163.9  9107.40  1067.29  11.72
2166.4  9056.27  1062.43  11.73
2169.0  9041.49  1077.21  11.91
2171.5  8982.35  1077.21  11.99
2174.0  8919.05  1064.06  11.93
2176.5  8910.20  1063.44  11.94
2179.1  8872.37  1058.10  11.93
2181.6  8820.83  1060.53  12.02
2184.1  8802.64  1084.16  12.32
2186.6  8815.58  1073.31  12.18
2189.1  8766.51  1056.09  12.05
2191.6  8725.27  1070.38  12.27
2194.1  8759.24  1062.93  12.13
2196.6  8743.02  1051.84  12.03
2199.2  8762.69  1073.25  12.25
2201.7  8728.52  1081.66  12.39
2204.1  8693.38  1060.41  12.20
2206.6  8724.47  1065.54  12.21
2209.1  8690.36  1072.42  12.34
2211.6  8648.75  1067.13  12.34
2214.1  8641.19  1073.34  12.42
2216.6  8629.81  1076.20  12.47
2219.1  8603.23  1068.60  12.42
2221.6  8565.00  1082.36  12.64
2224.0  8580.12  1052.83  12.27
2226.5  8553.64  1014.67  11.86
2229.0  8526.93  1056.98  12.40
2231.5  8456.64  1048.14  12.39
2233.9  8447.09  1014.68  12.01
2236.4  8434.10  1028.05  12.19
2238.9  8377.75  1012.67  12.09
2241.3  8418.52  971.66  11.54
2243.8  8391.31  980.74  11.69
2246.2  8272.81  971.75  11.75
2248.7  8260.98  932.03  11.28
2251.2  8270.85  931.37  11.26
2253.6  8217.60  934.40  11.37
2256.1  8198.40  921.60  11.24
2258.5  8205.80  901.51  10.99
2260.9  8176.22  899.95  11.01
2263.4  8125.75  891.77  10.97
2265.8  8124.16  870.63  10.72
2268.3  8073.80  858.18  10.63
2270.7  8110.40  834.20  10.29
2273.1  8107.19  837.31  10.33
2275.6  8037.12  844.80  10.51
2278.0  8047.94  825.03  10.25
2280.4  8050.71  829.96  10.31
2282.8  7936.92  815.63  10.28
2285.3  7936.09  784.15  9.88
2287.7  8013.06  790.11  9.86
2290.1  7946.20  785.39  9.88
2292.5  7908.89  789.70  9.98
2294.9  7966.56  778.48  9.77
2297.3  7878.36  756.72  9.61
2299.7  7782.17  743.61  9.56
2302.1  7817.38  712.34  9.11
2304.5  7722.40  705.60  9.14
2306.9  7647.92  679.47  8.88
2309.3  7632.91  684.40  8.97
2311.7  7536.00  684.26  9.08
2314.1  7439.51  680.02  9.14
2316.5  7426.90  703.95  9.48
2318.9  7433.98  680.60  9.16
2321.3  7420.20  665.56  8.97
2323.7  7439.58  685.52  9.21
2326.1  7403.11  674.35  9.11
2328.4  7412.50  663.14  8.95
2330.8  7505.15  684.39  9.12
2333.2  7417.12  686.39  9.25
2335.6  7356.75  637.98  8.67
2337.9  7411.84  652.43  8.80
2340.3  7376.47  652.14  8.84
2342.7  7282.70  629.11  8.64
2345.0  7270.29  658.23  9.05
2347.4  7284.50  627.58  8.62
2349.7  7133.68  609.43  8.54
2352.1  7080.04  628.95  8.88
2354.4  7143.83  628.99  8.80
2356.8  7126.82  610.09  8.56
2359.2  7067.67  624.00  8.83
2361.5  7038.06  632.68  8.99
2363.8  7031.06  587.02  8.35
2366.2  7039.27  575.21  8.17
2368.5  7035.45  581.47  8.26
2370.9  7023.13  565.13  8.05
2373.2  6987.82  568.08  8.13
2375.5  6900.63  577.70  8.37
2377.9  6892.20  574.35  8.33
2380.2  6890.83  574.24  8.33
2382.5  6864.93  562.13  8.19
2384.8  6830.08  527.41  7.72
2387.2  6784.02  540.72  7.97
2389.5  6780.31  565.03  8.33
2391.8  6787.76  548.22  8.08
2394.1  6727.26  551.81  8.20
2396.4  6676.90  543.51  8.14
2398.7  6732.64  539.13  8.01
2401.0  6690.59  537.36  8.03
2403.3  6603.48  514.60  7.79
2405.6  6572.81  493.17  7.50
2407.9  6583.14  504.34  7.66
2410.2  6542.40  509.69  7.79
2412.5  6479.13  523.41  8.08
2414.8  6475.24  522.06  8.06
2417.1  6452.08  474.87  7.36
2419.4  6434.35  486.27  7.56
2421.7  6386.85  481.86  7.54
2424.0  6345.28  452.61  7.13
2426.2  6355.80  470.80  7.41
2428.5  6327.75  495.77  7.83
2430.8  6349.25  457.80  7.21
2433.1  6300.57  418.56  6.64
2435.4  6204.86  466.25  7.51
2437.6  6227.24  464.39  7.46
2439.9  6165.27  432.36  7.01
2442.2  6149.09  432.32  7.03
2444.4  6162.60  446.07  7.24
2446.7  6079.44  428.27  7.04
2448.9  6081.55  420.44  6.91
2451.2  6103.04  445.01  7.29
2453.4  6038.72  397.76  6.59
2455.7  6026.93  419.64  6.96
2457.9  5958.48  423.28  7.10
2460.2  5949.23  359.63  6.04
2462.4  5977.92  378.56  6.33
2464.7  5891.98  399.53  6.78
2466.9  5829.36  372.36  6.39
2469.2  5872.39  388.90  6.62
2471.4  5796.90  374.21  6.46
2473.6  5737.62  357.07  6.22
2475.9  5730.24  395.11  6.90
2478.1  5663.45  332.48  5.87
2480.3  5645.91  324.88  5.75
2482.5  5682.93  381.25  6.71
2484.8  5614.17  378.65  6.74
2487.0  5547.59  340.70  6.14
2489.2  5555.75  364.36  6.56
2491.4  5471.72  371.44  6.79
2493.6  5479.00  339.66  6.20
2495.8  5550.75  348.41  6.28
2498.0  5512.53  378.31  6.86
2500.2  5509.95  353.85  6.42
2502.4  5736.48  378.88  6.60
2504.6  5803.02  406.90  7.01
2506.8  5806.03  360.45  6.21
