/*** Spectra Vista SIG Data ***/
name= RT2.sig
comm= SIG file reprocesed for matching/overlap;Averaged Ref/Tar of files: RD6T4,RD6T5,RD6T6
data=
346.4  350.35  49.90  14.24
347.9  381.21  51.88  13.61
349.5  410.28  53.87  13.13
351.1  433.68  52.21  12.04
352.6  475.96  56.50  11.87
354.2  499.06  55.85  11.19
355.7  540.48  61.06  11.30
357.3  582.54  63.57  10.91
358.8  588.91  65.24  11.08
360.4  636.67  68.01  10.68
361.9  668.64  66.86  10.00
363.5  692.50  68.56  9.90
365.1  712.57  69.35  9.73
366.6  747.47  71.12  9.51
368.2  792.37  70.73  8.93
369.7  840.74  70.74  8.41
371.3  898.85  75.51  8.40
372.8  941.22  76.36  8.11
374.4  986.23  76.99  7.81
375.9  1017.83  78.56  7.72
377.4  1052.18  80.44  7.65
379.0  1086.82  81.47  7.50
380.5  1123.29  79.81  7.11
382.1  1153.93  79.00  6.85
383.6  1194.95  81.08  6.79
385.2  1251.25  85.25  6.81
386.7  1299.60  86.28  6.64
388.3  1372.34  87.32  6.36
389.8  1424.66  91.32  6.41
391.3  1483.01  95.62  6.45
392.9  1530.61  96.16  6.28
394.4  1562.39  101.29  6.48
395.9  1621.81  106.13  6.54
397.5  1711.90  112.62  6.58
399.0  1784.48  109.80  6.15
400.6  1838.09  106.60  5.80
402.1  1856.31  101.31  5.46
403.6  1888.03  104.53  5.54
405.1  1944.54  105.26  5.41
406.7  2010.40  106.63  5.30
408.2  2079.37  111.53  5.36
409.7  2148.16  115.73  5.39
411.3  2213.53  117.81  5.32
412.8  2271.65  119.61  5.27
414.3  2341.03  126.62  5.41
415.8  2417.50  129.33  5.35
417.4  2490.79  131.90  5.30
418.9  2548.98  133.25  5.23
420.4  2593.45  134.93  5.20
421.9  2640.22  134.07  5.08
423.5  2679.41  135.59  5.06
425.0  2722.85  137.70  5.06
426.5  2778.88  137.74  4.96
428.0  2849.90  138.61  4.86
429.5  2939.79  142.86  4.86
431.1  3042.79  148.35  4.88
432.6  3149.06  152.26  4.84
434.1  3259.99  158.11  4.85
435.6  3346.58  161.77  4.83
437.1  3441.75  165.49  4.81
438.6  3531.11  167.16  4.73
440.1  3611.12  173.66  4.81
441.6  3703.62  178.35  4.82
443.1  3787.76  180.90  4.78
444.7  3873.68  186.46  4.81
446.2  3941.61  190.57  4.83
447.7  4009.71  193.89  4.84
449.2  4084.56  197.71  4.84
450.7  4145.44  198.01  4.78
452.2  4210.01  195.97  4.65
453.7  4291.20  198.29  4.62
455.2  4393.26  203.20  4.63
456.7  4515.28  211.08  4.67
458.2  4654.47  216.81  4.66
459.7  4795.00  222.95  4.65
461.2  4934.06  229.80  4.66
462.7  5054.96  235.80  4.66
464.2  5177.07  241.31  4.66
465.7  5301.12  248.33  4.68
467.2  5404.44  254.87  4.72
468.7  5508.00  262.93  4.77
470.2  5586.81  272.79  4.88
471.7  5702.38  285.32  5.00
473.2  5885.72  291.41  4.95
474.6  6027.25  286.57  4.75
476.1  6074.86  276.73  4.56
477.6  6093.70  278.88  4.58
479.1  6122.60  282.74  4.62
480.6  6163.05  286.46  4.65
482.1  6243.66  291.75  4.67
483.6  6332.42  297.13  4.69
485.1  6458.38  300.50  4.65
486.6  6604.00  306.54  4.64
488.0  6753.50  314.49  4.66
489.5  6913.82  323.75  4.68
491.0  7075.65  333.04  4.71
492.5  7238.97  339.87  4.70
494.0  7404.10  349.67  4.72
495.4  7549.58  358.05  4.74
496.9  7695.36  364.84  4.74
498.4  7836.28  373.93  4.77
499.9  7979.51  380.83  4.77
501.4  8103.78  388.79  4.80
502.8  8223.51  396.21  4.82
504.3  8333.10  404.52  4.85
505.8  8444.88  412.53  4.88
507.2  8514.20  418.27  4.91
508.7  8565.01  423.48  4.94
510.2  8590.79  428.96  4.99
511.6  8618.22  429.78  4.99
513.1  8670.26  435.46  5.02
514.6  8732.77  437.71  5.01
516.0  8783.27  441.46  5.03
517.5  8880.96  447.84  5.04
519.0  8994.65  455.06  5.06
520.5  9112.66  464.99  5.10
521.9  9263.01  475.15  5.13
523.4  9434.43  485.94  5.15
524.8  9608.27  497.90  5.18
526.3  9802.81  511.07  5.21
527.8  10000.35  525.05  5.25
529.2  10181.33  537.28  5.28
530.7  10383.39  550.31  5.30
532.1  10567.68  563.70  5.33
533.6  10773.42  575.51  5.34
535.0  10980.59  590.21  5.38
536.5  11186.70  606.37  5.42
538.0  11401.56  622.53  5.46
539.4  11601.83  641.47  5.53
540.9  11838.18  658.38  5.56
542.3  12056.36  668.57  5.55
543.8  12205.88  675.86  5.54
545.2  12241.58  678.47  5.54
546.6  12248.30  686.19  5.60
548.1  12260.70  693.98  5.66
549.5  12261.13  700.06  5.71
551.0  12260.01  705.50  5.75
552.4  12274.54  713.57  5.81
553.9  12279.40  718.15  5.85
555.3  12300.80  725.05  5.89
556.8  12360.66  734.82  5.94
558.2  12414.09  741.71  5.97
559.6  12499.51  754.31  6.03
561.1  12612.44  766.46  6.08
562.5  12742.28  782.12  6.14
564.0  12915.37  798.84  6.19
565.4  13070.62  813.30  6.22
566.8  13269.64  833.78  6.28
568.3  13461.39  853.03  6.34
569.7  13659.35  875.86  6.41
571.1  13859.91  896.30  6.47
572.6  14064.03  919.62  6.54
574.0  14250.23  940.39  6.60
575.4  14437.41  964.35  6.68
576.9  14612.77  986.25  6.75
578.3  14771.90  1008.86  6.83
579.7  14927.19  1031.50  6.91
581.1  15049.34  1052.70  6.99
582.6  15179.87  1075.02  7.08
584.0  15306.40  1097.60  7.17
585.4  15471.50  1122.05  7.25
586.8  15703.41  1144.77  7.29
588.3  15959.97  1174.06  7.36
589.7  16164.72  1195.90  7.40
591.1  16308.26  1216.36  7.46
592.5  16380.50  1234.57  7.54
594.0  16416.90  1253.26  7.63
595.4  16426.30  1273.12  7.75
596.8  16438.21  1288.58  7.84
598.2  16446.40  1305.11  7.94
599.6  16446.15  1318.73  8.02
601.0  16488.64  1337.61  8.11
602.4  16524.83  1354.33  8.20
603.9  16595.00  1375.74  8.29
605.3  16677.56  1396.10  8.37
606.7  16748.10  1416.36  8.46
608.1  16880.08  1445.46  8.56
609.5  17023.96  1477.77  8.68
610.9  17200.20  1512.57  8.79
612.3  17363.60  1544.58  8.90
613.7  17583.26  1586.97  9.03
615.1  17730.09  1632.42  9.21
616.5  17885.32  1675.94  9.37
617.9  18120.27  1722.15  9.50
619.3  18343.55  1763.68  9.61
620.7  18613.68  1809.34  9.72
622.1  18877.69  1852.80  9.81
623.5  19168.37  1908.27  9.96
624.9  19495.88  1978.87  10.15
626.3  19705.80  2044.69  10.38
627.7  19502.63  2070.72  10.62
629.1  19316.59  2100.34  10.87
630.5  19234.56  2138.05  11.12
631.9  19243.16  2176.68  11.31
633.3  19227.78  2209.64  11.49
634.7  19307.14  2245.05  11.63
636.1  19335.07  2268.76  11.73
637.5  19378.14  2294.33  11.84
638.9  19457.31  2330.08  11.98
640.2  19514.53  2369.19  12.14
641.6  19531.98  2387.58  12.22
643.0  19504.65  2395.12  12.28
644.4  19507.28  2410.17  12.36
645.8  19449.04  2416.20  12.42
647.2  19526.59  2412.70  12.36
648.5  19579.91  2346.51  11.98
649.9  19492.88  2251.42  11.55
651.3  19428.45  2151.86  11.08
652.7  19344.30  2047.31  10.58
654.1  19217.52  2087.72  10.86
655.5  19076.42  2156.46  11.30
656.8  18936.77  2218.56  11.72
658.2  19052.33  2292.28  12.03
659.6  19274.42  2358.03  12.23
660.9  19463.87  2407.78  12.37
662.3  19650.11  2454.32  12.49
663.7  19826.10  2501.52  12.62
665.0  19986.79  2542.46  12.72
666.4  20146.14  2582.76  12.82
667.8  20346.56  2628.89  12.92
669.1  20529.76  2682.91  13.07
670.5  20738.52  2744.44  13.23
671.9  20872.26  2797.25  13.40
673.2  21059.41  2862.05  13.59
674.6  21230.21  2927.15  13.79
676.0  21420.32  3006.23  14.03
677.3  21614.12  3088.73  14.29
678.7  21817.38  3188.92  14.62
680.0  22089.50  3300.76  14.94
681.4  22373.47  3414.80  15.26
682.8  22657.86  3532.17  15.59
684.1  22942.53  3641.66  15.87
685.5  23200.94  3748.22  16.16
686.8  23448.72  3861.38  16.47
688.2  23672.40  3973.81  16.79
689.5  23749.65  4049.22  17.05
690.9  23825.77  4129.02  17.33
692.2  23869.28  4208.35  17.63
693.6  23926.69  4283.98  17.90
694.9  23920.11  4333.43  18.12
696.2  23942.14  4394.44  18.35
697.6  23961.85  4453.79  18.59
698.9  23992.32  4513.52  18.81
700.3  24038.01  4576.20  19.04
701.6  24084.68  4648.48  19.30
703.0  24137.54  4723.76  19.57
704.3  24141.49  4797.54  19.87
705.6  24144.66  4857.39  20.12
707.0  24151.61  4927.06  20.40
708.3  24094.31  4976.28  20.65
709.6  24038.25  5027.88  20.92
711.0  23936.43  5068.29  21.17
712.3  23827.16  5101.73  21.41
713.6  23789.01  5160.29  21.69
714.9  23716.29  5200.37  21.93
716.3  23686.39  5258.00  22.20
717.6  23672.15  5316.66  22.46
718.9  23614.96  5363.51  22.71
720.2  23494.56  5402.95  23.00
721.6  23399.74  5442.80  23.26
722.9  23270.63  5474.43  23.53
724.2  23091.17  5490.50  23.78
725.5  22957.02  5512.71  24.01
726.8  22832.78  5536.97  24.25
728.1  22750.67  5576.35  24.51
729.5  22685.44  5618.11  24.77
730.8  22628.18  5658.41  25.01
732.1  22547.20  5686.84  25.22
733.4  22493.78  5720.20  25.43
734.7  22430.29  5762.62  25.69
736.0  22412.65  5802.24  25.89
737.3  22354.35  5837.27  26.11
738.6  22392.88  5904.80  26.37
739.9  22486.41  5981.84  26.60
741.2  22557.99  6054.78  26.84
742.5  22690.46  6156.53  27.13
743.8  22954.18  6275.89  27.34
745.1  23356.68  6438.84  27.57
746.4  23838.13  6636.91  27.84
747.7  24340.83  6845.58  28.12
749.0  24845.90  7063.21  28.43
750.3  25109.11  7224.13  28.77
751.6  25056.94  7277.21  29.04
752.9  24812.33  7258.17  29.25
754.2  24511.78  7223.06  29.47
755.4  24190.11  7171.06  29.64
756.7  24095.29  7190.68  29.84
758.0  24119.44  7246.35  30.04
759.3  24282.67  7349.93  30.27
760.6  24509.10  7474.75  30.50
761.9  24709.31  7590.91  30.72
763.1  24854.26  7689.15  30.94
764.4  25021.13  7803.00  31.19
765.7  25148.50  7903.57  31.43
767.0  25255.87  7996.23  31.66
768.2  25351.20  8078.78  31.87
769.5  25424.49  8158.03  32.09
770.8  25570.26  8259.33  32.30
772.0  25587.81  8330.52  32.56
773.3  25669.17  8414.13  32.78
774.6  25760.75  8511.39  33.04
775.8  25826.13  8611.95  33.35
777.1  25851.30  8689.47  33.61
778.4  25836.83  8741.58  33.83
779.6  25861.37  8813.94  34.08
780.9  25820.00  8857.60  34.31
782.1  25728.02  8873.16  34.49
783.4  25750.40  8951.49  34.76
784.6  25767.74  9019.67  35.00
785.9  25975.04  9155.49  35.25
787.1  26352.59  9356.94  35.51
788.4  26662.70  9563.62  35.87
789.6  26677.46  9670.82  36.25
790.9  26422.83  9662.65  36.57
792.1  26144.60  9605.79  36.74
793.4  25865.12  9565.83  36.98
794.6  25676.57  9573.86  37.29
795.8  25513.36  9581.47  37.55
797.1  25350.08  9574.87  37.77
798.3  25228.50  9587.74  38.00
799.5  25169.97  9627.50  38.25
800.8  25099.23  9662.03  38.50
802.0  25011.42  9692.39  38.75
803.2  24918.76  9711.97  38.97
804.5  24860.18  9752.92  39.23
805.7  24781.04  9789.70  39.50
806.9  24699.71  9814.73  39.74
808.1  24647.73  9855.47  39.99
809.4  24609.13  9902.34  40.24
810.6  24558.63  9939.93  40.47
811.8  24538.32  9990.00  40.71
813.0  24560.28  10035.44  40.86
814.2  24583.06  10087.08  41.03
815.4  24644.79  10181.93  41.31
816.6  24675.27  10246.58  41.53
817.9  24704.84  10314.05  41.75
819.1  24672.89  10342.09  41.92
820.3  24583.02  10347.47  42.09
821.5  24511.70  10356.78  42.25
822.7  24474.49  10380.49  42.41
823.9  24466.74  10417.17  42.58
825.1  24483.13  10449.47  42.68
826.3  24493.16  10495.30  42.85
827.5  24511.03  10533.53  42.97
828.7  24560.16  10579.50  43.08
829.9  24556.61  10614.30  43.22
831.0  24631.50  10668.67  43.31
832.2  24684.15  10716.19  43.41
833.4  24732.69  10765.89  43.53
834.6  24771.09  10813.75  43.65
835.8  24806.25  10856.79  43.77
837.0  24848.21  10915.98  43.93
838.1  24942.61  10987.11  44.05
839.3  24987.97  11033.80  44.16
840.5  25056.73  11101.70  44.31
841.7  25139.84  11163.49  44.41
842.9  25202.72  11222.74  44.53
844.0  25272.39  11277.42  44.62
845.2  25356.92  11348.14  44.75
846.4  25406.55  11403.67  44.88
847.5  25535.27  11494.07  45.01
848.7  25649.51  11588.53  45.18
849.9  25759.43  11687.54  45.37
851.0  25787.85  11748.64  45.56
852.2  25836.49  11814.55  45.73
853.3  25835.02  11844.59  45.85
854.5  25803.13  11875.61  46.02
855.6  25784.28  11914.88  46.21
856.8  25811.14  11952.42  46.31
857.9  25796.36  11985.36  46.46
859.1  25866.40  12050.32  46.59
860.2  25870.46  12089.42  46.73
861.4  25883.89  12121.60  46.83
862.5  25913.95  12170.67  46.97
863.7  25967.63  12236.87  47.12
864.8  25978.23  12260.38  47.19
865.9  25934.02  12275.95  47.34
867.1  25972.57  12315.46  47.42
868.2  25960.64  12347.18  47.56
869.3  25983.57  12385.29  47.67
870.5  25945.69  12388.13  47.75
871.6  25952.82  12414.20  47.83
872.7  25988.86  12465.81  47.97
873.9  26010.48  12504.87  48.08
875.0  25998.57  12512.80  48.13
876.1  25976.68  12523.75  48.21
877.2  25992.15  12542.97  48.26
878.3  25997.76  12560.27  48.31
879.4  26016.59  12586.46  48.38
880.5  26032.32  12612.65  48.45
881.7  26038.68  12615.29  48.45
882.8  26051.76  12658.31  48.59
883.9  26088.59  12701.88  48.69
885.0  26049.66  12706.01  48.78
886.1  26068.54  12726.92  48.82
887.2  25979.14  12706.10  48.91
888.3  25929.87  12710.00  49.02
889.4  25867.81  12680.47  49.02
890.5  25830.84  12676.04  49.07
891.6  25777.28  12665.79  49.14
892.7  25812.52  12668.31  49.08
893.8  25792.32  12673.57  49.14
894.9  25833.34  12677.92  49.08
896.0  25797.95  12682.08  49.16
897.0  25823.30  12703.92  49.20
898.1  25837.83  12709.64  49.19
899.2  25853.12  12724.19  49.22
900.3  25827.20  12689.65  49.13
901.4  25755.93  12656.73  49.14
902.4  25796.28  12674.65  49.13
903.5  25760.57  12662.09  49.15
904.6  25773.48  12654.89  49.10
905.7  25786.56  12663.48  49.11
906.7  25778.44  12662.32  49.12
907.8  25791.16  12670.56  49.13
908.9  25756.23  12635.34  49.06
909.9  25738.83  12634.63  49.09
911.0  25715.27  12604.60  49.02
912.1  25708.69  12575.69  48.92
913.1  25683.06  12537.72  48.82
914.2  25568.28  12476.22  48.80
915.2  25594.38  12459.53  48.68
916.3  25582.28  12432.52  48.60
917.3  25579.53  12401.15  48.48
918.4  25529.08  12333.46  48.31
919.4  25526.52  12296.32  48.17
920.5  25540.93  12261.02  48.01
921.5  25532.64  12221.18  47.86
922.6  25509.72  12148.89  47.62
923.6  25552.64  12117.55  47.42
924.7  25558.13  12061.50  47.19
925.7  25559.01  11989.44  46.91
926.7  25571.07  11936.82  46.68
927.8  25622.74  11903.34  46.46
928.8  25737.00  11853.94  46.06
929.9  25798.01  11815.24  45.80
930.9  25912.02  11779.06  45.46
931.9  26063.45  11742.39  45.05
932.9  26272.00  11755.03  44.74
934.0  26311.65  11683.13  44.40
935.0  26328.00  11583.77  44.00
936.0  26313.67  11462.01  43.56
937.0  26305.79  11360.52  43.19
938.1  26273.03  11253.78  42.83
939.1  26282.27  11132.21  42.36
940.1  26307.38  11047.40  41.99
941.1  26474.98  11005.82  41.57
942.1  26613.43  10949.48  41.14
943.1  26709.35  10885.81  40.76
944.1  26891.46  10814.02  40.21
945.2  26931.87  10722.40  39.81
946.2  27005.05  10608.53  39.28
947.2  27050.94  10518.10  38.88
948.2  27161.01  10430.19  38.40
949.2  27258.97  10328.99  37.89
950.2  27257.00  10207.79  37.45
951.2  27381.90  10082.63  36.82
952.2  27427.92  9981.36  36.39
953.2  27549.11  9902.69  35.95
954.2  27670.16  9806.79  35.44
955.2  27683.23  9699.88  35.04
956.2  27678.04  9587.12  34.64
957.2  27683.31  9518.33  34.38
958.2  27771.67  9446.39  34.01
959.2  27855.45  9398.37  33.74
960.1  27895.78  9351.93  33.52
961.1  27947.74  9315.33  33.33
962.1  27921.09  9287.44  33.26
963.1  28038.72  9252.59  33.00
964.1  28081.62  9245.36  32.92
965.1  28159.91  9238.29  32.81
966.1  28230.04  9226.40  32.68
967.0  28291.66  9231.62  32.63
968.0  28354.15  9197.77  32.44
969.0  28355.00  9206.28  32.47
970.0  28440.42  9205.71  32.37
971.0  28447.07  9206.66  32.36
971.9  28529.94  9191.93  32.22
972.9  28619.85  9210.48  32.18
973.9  28640.46  9193.36  32.10
974.9  28629.25  9232.46  32.25
975.8  28737.28  9226.21  32.11
976.8  28722.61  9245.23  32.19
977.8  28846.97  9285.40  32.19
978.8  28789.28  9295.65  32.29
979.7  28914.30  9299.51  32.16
981.4  29806.10  9635.64  32.33
985.3  29606.90  9729.10  32.86
989.3  29665.19  9911.38  33.41
993.3  29713.32  10152.05  34.17
997.2  29668.74  10345.99  34.87
1001.2  29627.00  10525.62  35.53
1005.2  29568.23  10729.88  36.29
1009.1  29600.49  10959.18  37.02
1013.1  29702.49  11238.83  37.84
1017.1  29789.49  11536.95  38.73
1021.0  29789.99  11808.34  39.64
1025.0  29760.59  12095.97  40.64
1029.0  29636.30  12340.79  41.64
1032.9  29533.53  12575.25  42.58
1036.9  29509.70  12839.71  43.51
1040.9  29556.91  13136.97  44.45
1044.8  29679.34  13445.52  45.30
1048.8  29786.37  13720.85  46.06
1052.7  29868.84  13959.37  46.74
1056.7  29898.31  14135.90  47.28
1060.7  29913.73  14270.51  47.71
1064.6  29918.21  14382.12  48.07
1068.6  29859.11  14408.47  48.25
1072.5  29814.52  14390.80  48.27
1076.5  29798.83  14351.00  48.16
1080.4  29797.49  14285.89  47.94
1084.4  29858.05  14210.00  47.59
1088.3  29928.60  14104.67  47.13
1092.3  29919.24  13932.49  46.57
1096.2  29930.07  13718.82  45.84
1100.2  29956.02  13514.20  45.11
1104.1  29873.92  13261.83  44.39
1108.1  29858.25  13023.32  43.62
1112.0  29809.22  12767.94  42.83
1116.0  29674.06  12462.00  42.00
1119.9  29580.84  12121.42  40.98
1123.9  29636.88  11754.29  39.66
1127.8  29621.76  11224.32  37.89
1131.8  29615.13  10579.10  35.72
1135.7  29658.37  9869.67  33.28
1139.6  29649.41  9128.73  30.79
1143.6  29635.32  8469.21  28.58
1147.5  29635.02  7936.15  26.78
1151.4  29535.85  7493.74  25.37
1155.4  29547.88  7207.40  24.39
1159.3  29582.50  7027.18  23.75
1163.2  29498.44  6871.97  23.30
1167.2  29505.90  6783.82  22.99
1171.1  29517.01  6709.32  22.73
1175.0  29484.53  6636.77  22.51
1179.0  29486.15  6586.80  22.34
1182.9  29537.81  6555.45  22.19
1186.8  29538.86  6507.66  22.03
1190.7  29410.97  6434.05  21.88
1194.7  29255.48  6373.34  21.79
1198.6  29133.72  6327.09  21.72
1202.5  29044.69  6304.70  21.71
1206.4  28972.03  6298.42  21.74
1210.3  28920.11  6291.73  21.76
1214.2  28863.76  6307.14  21.85
1218.2  28763.18  6324.29  21.99
1222.1  28692.28  6342.59  22.11
1226.0  28656.56  6368.12  22.22
1229.9  28600.92  6392.86  22.35
1233.8  28545.33  6416.46  22.48
1237.7  28520.81  6444.60  22.60
1241.6  28465.46  6463.88  22.71
1245.5  28370.21  6463.93  22.78
1249.4  28299.76  6468.20  22.86
1253.3  28232.22  6477.37  22.94
1257.2  28191.00  6488.33  23.02
1261.1  28130.65  6473.52  23.01
1265.0  28057.45  6445.83  22.97
1268.9  27949.80  6404.57  22.91
1272.8  27989.85  6387.80  22.82
1276.7  28109.94  6379.78  22.70
1280.6  28175.48  6341.09  22.51
1284.5  28132.96  6272.34  22.30
1288.4  28112.11  6191.81  22.03
1292.3  28036.25  6080.25  21.69
1296.2  27954.20  5963.56  21.33
1300.1  27848.52  5830.90  20.94
1303.9  27706.57  5680.69  20.50
1307.8  27559.31  5517.79  20.02
1311.7  27397.23  5338.32  19.48
1315.6  27238.78  5153.12  18.92
1319.5  27066.08  4959.36  18.32
1323.3  26913.00  4776.86  17.75
1327.2  26776.06  4596.32  17.17
1331.1  26621.95  4422.14  16.61
1335.0  26429.02  4252.97  16.09
1338.8  26290.11  4097.77  15.59
1342.7  26169.42  3959.29  15.13
1346.5  25929.13  3818.66  14.73
1350.4  25728.90  3694.60  14.36
1354.3  25457.85  3570.35  14.02
1358.1  25158.95  3447.12  13.70
1362.0  24980.59  3326.84  13.32
1365.8  24927.82  3214.37  12.89
1369.7  24996.19  3109.73  12.44
1373.5  24961.93  2984.89  11.96
1377.4  24802.90  2827.19  11.40
1381.2  24660.90  2642.74  10.72
1385.1  24643.85  2461.04  9.99
1389.0  24592.75  2283.90  9.29
1392.8  24461.78  2116.79  8.65
1396.6  24365.22  1968.78  8.08
1400.5  24231.60  1838.25  7.59
1404.3  24125.27  1735.80  7.19
1408.2  24097.32  1661.77  6.90
1412.0  24070.61  1605.84  6.67
1415.8  24101.54  1560.30  6.47
1419.6  24084.23  1522.77  6.32
1423.5  24070.46  1500.14  6.23
1427.3  24053.34  1479.17  6.15
1431.1  24042.83  1463.98  6.09
1434.9  23983.10  1451.70  6.05
1438.8  23944.05  1440.70  6.02
1442.6  23927.04  1432.50  5.99
1446.4  23856.75  1418.35  5.95
1450.2  23800.39  1414.80  5.94
1454.0  23730.24  1407.52  5.93
1457.8  23714.21  1407.74  5.94
1461.6  23699.02  1413.26  5.96
1465.4  23623.88  1409.46  5.97
1469.2  23507.58  1413.54  6.01
1473.0  23416.67  1421.61  6.07
1476.8  23385.95  1432.10  6.12
1480.7  23341.52  1449.45  6.21
1484.4  23269.68  1462.24  6.28
1488.2  23205.84  1482.00  6.39
1492.0  23119.76  1503.12  6.50
1495.8  23050.30  1522.74  6.61
1499.6  22974.60  1538.32  6.70
1503.4  22886.86  1550.50  6.77
1507.2  22817.82  1567.84  6.87
1510.9  22736.47  1580.74  6.95
1514.7  22640.13  1593.19  7.04
1518.5  22563.41  1605.22  7.11
1522.3  22469.97  1611.71  7.17
1526.0  22400.45  1615.11  7.21
1529.8  22366.84  1618.06  7.23
1533.6  22289.14  1624.40  7.29
1537.3  22206.85  1646.29  7.41
1541.1  22117.21  1670.89  7.55
1544.8  22039.20  1687.20  7.66
1548.6  21965.35  1704.44  7.76
1552.4  21895.60  1724.93  7.88
1556.1  21841.83  1736.00  7.95
1559.9  21787.79  1748.42  8.02
1563.6  21716.01  1760.69  8.11
1567.3  21641.45  1774.18  8.20
1571.1  21503.94  1788.61  8.32
1574.8  21413.78  1804.57  8.43
1578.6  21355.88  1818.06  8.51
1582.3  21274.05  1827.58  8.59
1586.0  21183.04  1837.73  8.68
1589.8  21100.62  1836.58  8.70
1593.5  21000.69  1831.93  8.72
1597.2  20929.52  1840.77  8.80
1600.9  20843.62  1851.11  8.88
1604.7  20745.10  1858.32  8.96
1608.4  20669.95  1863.85  9.02
1612.1  20567.28  1868.74  9.09
1615.8  20477.47  1872.67  9.15
1619.5  20422.34  1880.60  9.21
1623.2  20328.29  1882.92  9.26
1626.9  20221.28  1875.44  9.27
1630.6  20112.62  1872.27  9.31
1634.3  20025.88  1871.53  9.35
1638.0  19934.15  1876.56  9.41
1641.7  19830.91  1887.97  9.52
1645.4  19716.98  1888.07  9.58
1649.1  19602.77  1881.78  9.60
1652.8  19509.95  1877.82  9.62
1656.4  19395.62  1873.85  9.66
1660.1  19295.18  1872.28  9.70
1663.8  19185.10  1860.44  9.70
1667.5  19083.74  1850.19  9.70
1671.1  18996.35  1843.88  9.71
1674.8  18876.30  1824.41  9.67
1678.5  18838.56  1808.84  9.60
1682.1  18849.73  1801.01  9.55
1685.8  18859.30  1790.63  9.49
1689.5  18795.30  1774.61  9.44
1693.1  18706.41  1759.33  9.40
1696.8  18615.25  1743.25  9.36
1700.4  18529.58  1721.39  9.29
1704.0  18456.67  1700.71  9.21
1707.7  18296.86  1671.60  9.14
1711.3  18114.51  1639.97  9.05
1715.0  17992.28  1617.91  8.99
1718.6  17886.14  1593.34  8.91
1722.2  17799.94  1565.20  8.79
1725.9  17706.59  1544.32  8.72
1729.5  17604.49  1528.94  8.68
1733.1  17541.49  1513.77  8.63
1736.7  17471.92  1502.57  8.60
1740.3  17366.15  1484.90  8.55
1744.0  17315.89  1468.75  8.48
1747.5  17227.16  1455.32  8.45
1751.2  17088.52  1431.81  8.38
1754.8  16976.43  1411.13  8.31
1758.4  16893.02  1397.82  8.27
1762.0  16789.89  1380.04  8.22
1765.5  16699.11  1367.30  8.19
1769.1  16665.60  1361.60  8.17
1772.7  16620.17  1352.53  8.14
1776.3  16550.18  1335.74  8.07
1779.9  16477.44  1320.81  8.02
1783.5  16434.96  1316.88  8.01
1787.0  16345.96  1301.98  7.97
1790.6  16243.66  1294.84  7.97
1794.2  16171.99  1288.96  7.97
1797.8  16109.35  1277.87  7.93
1801.3  16053.66  1273.77  7.93
1804.9  15954.75  1266.13  7.94
1808.4  15901.90  1261.55  7.93
1812.0  15801.30  1255.24  7.94
1815.5  15695.88  1248.22  7.95
1819.1  15574.16  1232.48  7.91
1822.6  15471.85  1224.63  7.92
1826.2  15387.58  1217.46  7.91
1829.7  15274.18  1206.80  7.90
1833.2  15120.13  1197.76  7.92
1836.8  14969.50  1180.58  7.89
1840.3  14877.77  1161.80  7.81
1843.8  14800.45  1146.76  7.75
1847.3  14738.02  1130.97  7.67
1850.8  14668.42  1112.83  7.59
1854.3  14577.15  1093.59  7.50
1857.8  14534.00  1083.33  7.45
1861.3  14522.25  1067.58  7.35
1864.8  14459.04  1030.88  7.13
1868.3  14308.06  1016.06  7.10
1871.8  14215.68  962.56  6.77
1875.3  14201.46  897.26  6.32
1878.8  14176.42  873.94  6.16
1882.3  14122.90  848.58  6.01
1885.8  14014.10  819.16  5.85
1889.3  13904.45  789.62  5.68
1892.7  13776.82  758.49  5.51
1896.2  13660.15  733.17  5.37
1899.7  13554.20  739.05  5.45
1901.7  12667.81  515.34  4.07
1904.5  12785.93  523.71  4.10
1907.2  12706.25  509.83  4.01
1910.0  12637.10  502.95  3.98
1912.7  12646.53  505.75  4.00
1915.5  12573.30  523.10  4.16
1918.2  12524.17  535.56  4.28
1921.0  12429.58  540.97  4.35
1923.7  12476.24  542.50  4.35
1926.5  12456.75  531.92  4.27
1929.2  12429.04  519.48  4.18
1932.0  12425.12  526.67  4.24
1934.7  12406.61  519.03  4.18
1937.4  12332.23  511.78  4.15
1940.2  12287.19  527.59  4.29
1942.9  12341.39  532.88  4.32
1945.6  12357.84  521.45  4.22
1948.3  12310.10  528.46  4.29
1951.1  12286.82  530.76  4.32
1953.8  12285.00  518.00  4.22
1956.5  12213.61  532.11  4.36
1959.2  12244.05  545.18  4.45
1961.9  12277.60  542.36  4.42
1964.6  12227.25  552.36  4.52
1967.3  12243.43  555.75  4.54
1970.0  12130.08  543.65  4.48
1972.8  12063.78  547.15  4.54
1975.5  12116.40  568.75  4.69
1978.2  12077.12  573.29  4.75
1980.9  11995.23  570.37  4.75
1983.5  11947.43  570.04  4.77
1986.2  11960.10  560.66  4.69
1988.9  11951.37  582.00  4.87
1991.6  11858.95  580.30  4.89
1994.3  11764.18  567.08  4.82
1997.0  11766.88  579.55  4.93
1999.7  11773.83  586.78  4.98
2002.3  11759.81  583.00  4.96
2005.0  11690.77  583.00  4.99
2007.7  11638.67  591.49  5.08
2010.4  11594.16  590.99  5.10
2013.0  11562.08  605.04  5.23
2015.7  11497.38  603.38  5.25
2018.4  11428.93  590.03  5.16
2021.0  11415.50  602.56  5.28
2023.7  11337.76  589.83  5.20
2026.4  11289.20  581.17  5.15
2029.0  11241.04  600.76  5.34
2031.7  11159.63  590.56  5.29
2034.3  11170.90  578.36  5.18
2037.0  11088.29  591.15  5.33
2039.6  11036.71  590.80  5.35
2042.3  11025.52  582.26  5.28
2044.9  10984.38  594.66  5.41
2047.5  10945.11  609.62  5.57
2050.2  10866.80  599.20  5.51
2052.8  10875.20  588.93  5.42
2055.4  10794.82  600.49  5.56
2058.1  10693.20  589.87  5.52
2060.7  10690.88  593.48  5.55
2063.3  10636.71  602.85  5.67
2065.9  10588.79  595.56  5.62
2068.6  10527.38  602.07  5.72
2071.2  10509.93  597.06  5.68
2073.8  10479.76  593.25  5.66
2076.4  10429.57  609.05  5.84
2079.0  10413.86  599.47  5.76
2081.6  10426.21  584.24  5.60
2084.2  10409.13  607.60  5.84
2086.8  10317.76  601.49  5.83
2089.4  10237.53  602.32  5.88
2092.1  10185.83  620.50  6.09
2094.7  10161.53  596.08  5.87
2097.2  10134.83  590.28  5.82
2099.8  10154.06  605.39  5.96
2102.4  10079.62  602.79  5.98
2105.0  9975.00  593.75  5.95
2107.6  9943.53  601.95  6.05
2110.2  9903.21  610.96  6.17
2112.8  9887.09  608.93  6.16
2115.3  9921.47  629.29  6.34
2117.9  9932.41  629.66  6.34
2120.5  9899.34  616.04  6.22
2123.1  9860.18  623.03  6.32
2125.6  9830.42  620.81  6.32
2128.2  9760.43  605.82  6.21
2130.8  9696.38  607.43  6.26
2133.3  9680.00  608.18  6.28
2135.9  9631.02  598.14  6.21
2138.4  9558.99  606.03  6.34
2141.0  9487.88  612.15  6.45
2143.6  9445.83  607.83  6.43
2146.1  9343.90  598.44  6.40
2148.7  9250.50  593.21  6.41
2151.2  9289.87  591.56  6.37
2153.8  9283.27  600.44  6.47
2156.3  9196.68  594.60  6.47
2158.8  9167.15  585.75  6.39
2161.4  9136.89  584.75  6.40
2163.9  9080.87  593.60  6.54
2166.4  9038.53  589.36  6.52
2169.0  9026.70  588.38  6.52
2171.5  8964.61  592.32  6.61
2174.0  8877.40  575.17  6.48
2176.5  8859.37  592.02  6.68
2179.1  8821.17  585.27  6.63
2181.6  8799.54  571.83  6.50
2184.1  8784.16  580.07  6.60
2186.6  8784.20  576.41  6.56
2189.1  8744.04  568.17  6.50
2191.6  8708.93  586.91  6.74
2194.1  8706.09  597.90  6.87
2196.6  8712.45  563.84  6.47
2199.2  8755.72  566.27  6.47
2201.7  8703.45  567.10  6.52
2204.1  8678.72  570.52  6.57
2206.6  8675.98  586.85  6.76
2209.1  8675.22  566.49  6.53
2211.6  8663.97  546.89  6.31
2214.1  8610.78  555.04  6.45
2216.6  8633.61  564.69  6.54
2219.1  8660.20  549.49  6.35
2221.6  8580.23  571.00  6.65
2224.0  8522.97  560.07  6.57
2226.5  8511.79  535.24  6.29
2229.0  8530.74  558.31  6.54
2231.5  8441.32  555.35  6.58
2233.9  8443.24  522.09  6.18
2236.4  8476.56  528.82  6.24
2238.9  8385.50  524.42  6.25
2241.3  8391.31  532.47  6.35
2243.8  8383.54  542.84  6.48
2246.2  8253.42  520.77  6.31
2248.7  8237.84  506.51  6.15
2251.2  8236.26  530.38  6.44
2253.6  8194.56  513.28  6.26
2256.1  8190.72  471.04  5.75
2258.5  8190.43  491.73  6.00
2260.9  8134.04  493.44  6.07
2263.4  8110.40  490.03  6.04
2265.8  8131.85  494.94  6.09
2268.3  8069.96  468.21  5.80
2270.7  8098.88  465.72  5.75
2273.1  8065.01  479.38  5.94
2275.6  8029.44  467.20  5.82
2278.0  8032.57  443.26  5.52
2280.4  8050.71  438.71  5.45
2282.8  7960.15  451.69  5.67
2285.3  7901.09  440.68  5.58
2287.7  7985.73  450.38  5.64
2290.1  7946.20  429.59  5.41
2292.5  7920.79  411.38  5.19
2294.9  7927.04  426.78  5.38
2297.3  7846.72  410.00  5.23
2299.7  7809.80  404.05  5.17
2302.1  7774.17  403.31  5.19
2304.5  7698.88  410.29  5.33
2306.9  7651.84  411.60  5.38
2309.3  7605.49  408.81  5.38
2311.7  7551.70  409.51  5.42
2314.1  7431.64  396.46  5.33
2316.5  7403.26  396.63  5.36
2318.9  7422.16  384.97  5.19
2321.3  7384.55  388.25  5.26
2323.7  7411.63  402.00  5.42
2326.1  7407.14  388.22  5.24
2328.4  7416.57  356.66  4.81
2330.8  7456.07  370.83  4.97
2333.2  7380.05  392.62  5.32
2335.6  7348.45  381.96  5.20
2337.9  7374.28  376.99  5.11
2340.3  7351.28  363.86  4.95
2342.7  7303.86  351.23  4.81
2345.0  7304.27  343.98  4.71
2347.4  7310.00  358.42  4.90
2349.7  7167.86  343.16  4.79
2352.1  7105.77  344.50  4.85
2354.4  7122.34  361.06  5.07
2356.8  7109.55  339.58  4.78
2359.2  7054.67  356.78  5.06
2361.5  7016.24  351.98  5.02
2363.8  7061.80  341.09  4.83
2366.2  7030.44  339.83  4.83
2368.5  6995.40  332.27  4.75
2370.9  6987.35  350.41  5.01
2373.2  6974.33  346.24  4.96
2375.5  6914.20  327.31  4.73
2377.9  6855.73  329.72  4.81
2380.2  6895.41  352.79  5.12
2382.5  6832.77  318.59  4.66
2384.8  6779.04  300.05  4.43
2387.2  6826.21  348.50  5.11
2389.5  6803.92  338.39  4.97
2391.8  6773.50  294.71  4.35
2394.1  6708.07  315.09  4.70
2396.4  6696.25  345.13  5.15
2398.7  6727.77  323.16  4.80
2401.0  6675.75  313.19  4.69
2403.3  6633.36  307.10  4.63
2405.6  6587.80  288.24  4.38
2407.9  6548.07  297.26  4.54
2410.2  6522.35  312.50  4.79
2412.5  6494.37  294.74  4.54
2414.8  6495.78  284.14  4.37
2417.1  6477.89  283.89  4.38
2419.4  6418.72  269.18  4.19
2421.7  6381.59  287.37  4.50
2424.0  6340.00  297.63  4.69
2426.2  6377.20  262.15  4.11
2428.5  6376.43  292.05  4.58
2430.8  6305.65  305.20  4.84
2433.1  6272.91  269.21  4.29
2435.4  6216.05  277.89  4.47
2437.6  6193.67  274.16  4.43
2439.9  6131.58  254.55  4.15
2442.2  6143.40  284.42  4.63
2444.4  6156.85  302.48  4.91
2446.7  6096.96  293.95  4.82
2448.9  6140.77  264.50  4.31
2451.2  6097.08  250.32  4.11
2453.4  6044.75  251.11  4.15
2455.7  6045.18  267.59  4.43
2457.9  5958.48  254.38  4.27
2460.2  5967.72  207.56  3.48
2462.4  5959.20  251.68  4.22
2464.7  5866.75  269.15  4.59
2466.9  5842.20  241.82  4.14
2469.2  5878.87  246.30  4.19
2471.4  5796.90  266.98  4.61
2473.6  5704.14  265.57  4.66
2475.9  5730.24  261.90  4.57
2478.1  5690.78  227.72  4.00
2480.3  5611.10  199.57  3.56
2482.5  5590.00  274.02  4.90
2484.8  5592.32  269.42  4.82
2487.0  5577.22  219.73  3.94
2489.2  5540.68  228.67  4.13
2491.4  5525.52  240.80  4.36
2493.6  5479.00  232.54  4.24
2495.8  5487.41  211.16  3.85
2498.0  5504.43  172.94  3.14
2500.2  5484.68  185.35  3.38
2502.4  5700.96  242.72  4.26
2504.6  5765.46  244.14  4.23
2506.8  5747.58  240.29  4.18
