/*** Spectra Vista SIG Data ***/
name= RS.sig
comm= Resampled spectral data SIG file reprocesed for matching/overlap;Averaged Ref/Tar of files: RS1,RS2
data=
346.0  468.20  84.72  18.09
356.0  683.10  96.33  14.10
366.0  906.09  100.01  11.04
376.0  1249.89  109.21  8.74
386.0  1571.27  98.03  6.24
396.0  2026.07  126.34  6.24
406.0  2502.77  116.67  4.66
416.0  3165.14  137.65  4.35
426.0  3668.56  143.69  3.92
436.0  4548.65  160.22  3.52
446.0  5417.72  188.27  3.48
456.0  6302.44  200.44  3.18
466.0  7615.04  241.69  3.17
476.0  8743.20  259.93  2.97
486.0  9533.40  269.06  2.82
496.0  11257.81  313.85  2.79
506.0  12699.26  366.24  2.88
516.0  13281.41  382.17  2.88
526.0  14721.08  425.77  2.89
536.0  16749.01  498.08  2.97
546.0  18621.46  587.24  3.15
556.0  19066.94  660.75  3.47
566.0  20585.57  840.39  4.08
576.0  22670.38  1195.67  5.27
586.0  24106.47  1720.78  7.14
596.0  25247.53  2375.30  9.41
606.0  25711.34  3046.80  11.85
616.0  27649.38  3831.80  13.86
626.0  31025.14  4527.01  14.59
636.0  30881.13  5119.03  16.58
646.0  31238.37  5201.75  16.65
656.0  30360.38  4707.15  15.50
666.0  31764.82  3821.58  12.03
676.0  33416.99  3550.20  10.62
686.0  36086.51  5514.86  15.28
696.0  37161.40  11071.55  29.79
706.0  37800.45  15522.04  41.06
716.0  37597.62  17583.51  46.77
726.0  36909.99  18272.79  49.51
736.0  36510.50  18398.63  50.39
746.0  38642.98  19800.98  51.24
756.0  39260.04  20169.36  51.37
766.0  40452.13  21118.96  52.21
776.0  40956.88  21546.85  52.61
786.0  40712.49  21649.70  53.18
796.0  39541.78  20855.34  52.74
806.0  38183.08  20221.07  52.96
816.0  37991.58  20205.34  53.18
826.0  38001.34  19964.81  52.54
836.0  38898.28  20150.53  51.80
846.0  40272.93  20931.96  51.98
856.0  41435.70  21321.84  51.46
866.0  42009.41  21581.94  51.37
876.0  42227.12  21528.52  50.98
886.0  42357.46  21185.66  50.02
896.0  41812.69  20561.27  49.17
906.0  41556.83  20127.90  48.43
916.0  41043.62  19468.34  47.43
926.0  40765.22  18606.38  45.64
936.0  41670.71  17940.44  43.05
946.0  42483.47  17132.05  40.33
956.0  43315.05  15968.90  36.87
966.0  43997.52  15587.94  35.43
976.0  44695.21  15464.52  34.60
986.0  47191.67  15823.57  33.53
996.0  47061.19  15966.11  33.93
1006.0  46939.72  16340.81  34.81
1016.0  47337.20  17099.78  36.12
1026.0  47434.95  17709.05  37.33
1036.0  47300.39  18236.49  38.55
1046.0  47814.52  19013.99  39.77
1056.0  48169.66  19587.99  40.66
1066.0  48243.60  19869.44  41.19
1076.0  48081.60  19851.42  41.29
1086.0  48203.49  19694.08  40.86
1096.0  48223.42  19317.74  40.06
1106.0  48093.81  18863.05  39.22
1116.0  47754.46  18181.51  38.07
1126.0  47607.19  17203.71  36.14
1136.0  47567.70  15458.57  32.50
1146.0  47493.03  13486.54  28.40
1156.0  47323.93  12333.77  26.06
1166.0  47127.55  11898.19  25.25
1176.0  47007.28  11691.00  24.87
1186.0  47024.89  11539.96  24.54
1196.0  46427.12  11278.02  24.29
1206.0  45976.77  11196.23  24.35
1216.0  45638.29  11235.55  24.62
1226.0  45257.55  11332.94  25.04
1236.0  44986.64  11445.55  25.44
1246.0  44665.03  11485.85  25.72
1256.0  44348.18  11509.35  25.95
1266.0  44041.29  11465.23  26.03
1276.0  44122.33  11418.77  25.88
1286.0  44180.48  11236.47  25.43
1296.0  43940.70  10854.29  24.70
1306.0  43443.23  10247.35  23.59
1316.0  42852.87  9520.04  22.22
1326.0  42279.85  8678.30  20.53
1336.0  41687.98  7850.24  18.83
1346.0  41087.70  7115.69  17.32
1356.0  40136.77  6425.42  16.01
1366.0  39573.10  5843.07  14.77
1376.0  39448.29  5116.95  12.97
1386.0  39137.19  4022.43  10.28
1396.0  38705.17  2979.37  7.70
1406.0  38283.65  2305.26  6.02
1416.0  38247.12  1961.53  5.13
1426.0  38141.65  1801.56  4.72
1436.0  37993.55  1725.04  4.54
1446.0  37807.56  1692.05  4.48
1456.0  37564.66  1677.28  4.47
1466.0  37374.67  1708.12  4.57
1476.0  37032.66  1781.96  4.81
1486.0  36783.36  1919.58  5.22
1496.0  36446.95  2089.97  5.73
1506.0  36128.16  2174.86  6.02
1516.0  35703.58  2245.66  6.29
1526.0  35355.47  2369.10  6.70
1536.0  35069.58  2503.14  7.14
1546.0  34708.16  2647.09  7.63
1556.0  34457.36  2758.36  8.01
1566.0  34164.86  2875.69  8.42
1576.0  33714.29  2994.14  8.88
1586.0  33359.51  3082.46  9.24
1596.0  32961.11  3143.63  9.54
1606.0  32571.18  3204.65  9.84
1616.0  32156.21  3256.98  10.13
1626.0  31771.93  3318.82  10.45
1636.0  31326.06  3351.98  10.70
1646.0  30840.36  3338.47  10.82
1656.0  30342.57  3302.69  10.88
1666.0  29873.41  3263.45  10.92
1676.0  29453.55  3212.94  10.91
1686.0  29411.45  3173.01  10.79
1696.0  29052.01  3095.74  10.66
1706.0  28613.36  2972.14  10.39
1716.0  27944.47  2816.42  10.08
1726.0  27523.58  2684.62  9.75
1736.0  27167.55  2592.22  9.54
1746.0  26819.99  2491.29  9.29
1756.0  26352.17  2362.02  8.96
1766.0  25950.76  2257.08  8.70
1776.0  25733.96  2198.67  8.54
1786.0  25468.85  2143.53  8.42
1796.0  25144.26  2107.47  8.38
1806.0  24846.88  2089.67  8.41
1816.0  24492.53  2052.10  8.38
1826.0  24049.65  2017.69  8.39
1836.0  23447.37  1951.60  8.32
1846.0  23057.19  1899.82  8.24
1856.0  22644.78  1808.01  7.98
1866.0  22558.57  1556.26  6.90
1876.0  22322.63  1185.75  5.31
1886.0  22034.63  951.60  4.32
1896.0  21514.98  797.20  3.71
1906.0  20193.02  406.49  2.01
1916.0  19960.67  396.60  1.99
1926.0  19718.96  379.24  1.92
1936.0  19579.29  372.88  1.90
1946.0  19560.97  371.13  1.90
1956.0  19388.55  395.96  2.04
1966.0  19354.23  393.51  2.03
1976.0  19201.04  426.69  2.22
1986.0  18944.59  407.49  2.15
1996.0  18673.01  453.19  2.43
2006.0  18514.12  477.29  2.58
2016.0  18215.64  488.36  2.68
2026.0  17909.22  482.74  2.70
2036.0  17652.06  496.80  2.81
2046.0  17374.82  510.68  2.94
2056.0  17064.26  530.69  3.11
2066.0  16791.57  524.84  3.13
2076.0  16545.25  543.71  3.29
2086.0  16394.52  556.02  3.39
2096.0  16100.21  553.76  3.44
2106.0  15806.06  564.83  3.57
2116.0  15736.14  579.86  3.68
2126.0  15554.85  582.69  3.75
2136.0  15258.51  573.14  3.76
2146.0  14853.45  600.72  4.04
2156.0  14604.38  610.98  4.18
2166.0  14366.07  601.76  4.19
2176.0  14128.44  600.09  4.25
2186.0  13980.19  608.91  4.36
2196.0  13852.76  590.30  4.26
2206.0  13790.00  621.82  4.51
2216.0  13655.61  599.20  4.39
2226.0  13540.23  583.09  4.31
2236.0  13404.39  589.99  4.40
2246.0  13162.51  544.64  4.14
2256.0  12980.74  499.58  3.85
2266.0  12834.46  502.32  3.91
2276.0  12713.52  464.07  3.65
2286.0  12602.64  457.79  3.63
2296.0  12501.79  437.16  3.50
2306.0  12136.32  379.75  3.13
2316.0  11736.06  373.69  3.18
2326.0  11720.29  373.39  3.19
2336.0  11665.36  348.43  2.99
2346.0  11501.61  342.32  2.98
2356.0  11241.81  299.56  2.66
2366.0  11163.72  316.72  2.84
2376.0  10906.36  294.95  2.70
2386.0  10752.86  271.71  2.53
2396.0  10611.07  271.48  2.56
2406.0  10442.46  258.94  2.48
2416.0  10196.59  272.78  2.68
2426.0  10071.76  222.74  2.21
2436.0  9871.11  258.90  2.62
2446.0  9707.92  212.11  2.18
2456.0  9553.15  221.40  2.32
2466.0  9291.20  168.47  1.81
2476.0  9038.48  218.67  2.42
2486.0  8794.17  147.56  1.68
2496.0  8663.70  169.60  1.96
2506.0  9144.96  197.40  2.16
