/*** Spectra Vista SIG Data ***/
name= RS.sig
comm= SIG file reprocesed for matching/overlap;Averaged Ref/Tar of files: RS1,RS2
data=
346.4  468.20  84.72  18.09
347.9  473.76  87.23  18.41
349.5  521.04  86.74  16.65
351.1  558.48  82.37  14.75
352.6  585.06  82.23  14.05
354.2  625.05  93.60  14.97
355.7  673.50  96.31  14.30
357.3  724.71  96.40  13.30
358.8  751.43  96.46  12.84
360.4  798.47  105.53  13.22
361.9  821.87  96.82  11.78
363.5  851.78  103.88  12.20
365.1  887.68  95.70  10.78
366.6  918.37  102.89  11.20
368.2  973.68  106.10  10.90
369.7  1008.89  93.38  9.26
371.3  1073.36  92.85  8.65
372.8  1148.72  95.62  8.32
374.4  1191.49  100.13  8.40
375.9  1247.87  109.90  8.81
377.4  1278.23  99.53  7.79
379.0  1330.29  106.30  7.99
380.5  1360.26  95.41  7.01
382.1  1412.49  101.65  7.20
383.6  1460.03  104.90  7.18
385.2  1529.00  96.80  6.33
386.7  1608.26  99.10  6.16
388.3  1679.42  100.55  5.99
389.8  1759.55  104.86  5.96
391.3  1843.67  103.60  5.62
392.9  1897.62  107.55  5.67
394.4  1955.58  116.33  5.95
395.9  2019.02  126.23  6.25
397.5  2131.80  127.91  6.00
399.0  2240.25  126.69  5.66
400.6  2303.62  127.35  5.53
402.1  2342.64  123.33  5.26
403.6  2375.92  116.52  4.90
405.1  2451.81  115.17  4.70
406.7  2542.40  117.83  4.63
408.2  2650.73  118.95  4.49
409.7  2746.24  123.20  4.49
411.3  2843.51  127.60  4.49
412.8  2936.43  130.83  4.46
414.3  3034.90  134.62  4.44
415.8  3152.50  136.50  4.33
417.4  3253.58  145.73  4.48
418.9  3339.60  144.21  4.32
420.4  3424.70  146.56  4.28
421.9  3487.22  144.72  4.15
423.5  3546.87  144.77  4.08
425.0  3613.98  143.84  3.98
426.5  3695.85  143.62  3.89
428.0  3801.23  140.80  3.70
429.5  3926.30  142.99  3.64
431.1  4071.24  146.68  3.60
432.6  4225.66  151.88  3.59
434.1  4373.60  152.08  3.48
435.6  4514.36  159.06  3.52
437.1  4642.95  163.41  3.52
438.6  4769.06  168.99  3.54
440.1  4906.69  169.71  3.46
441.6  5042.30  168.21  3.34
443.1  5179.95  177.39  3.42
444.7  5318.34  183.31  3.45
446.2  5433.01  189.03  3.48
447.7  5551.25  190.73  3.44
449.2  5676.48  193.97  3.42
450.7  5788.64  194.27  3.36
452.2  5916.62  196.50  3.32
453.7  6028.91  195.20  3.24
455.2  6201.73  197.81  3.19
456.7  6390.56  202.75  3.17
458.2  6607.30  211.10  3.19
459.7  6823.25  219.45  3.22
461.2  7031.76  218.86  3.11
462.7  7219.07  228.41  3.16
464.2  7396.86  231.31  3.13
465.7  7583.22  240.70  3.17
467.2  7742.35  245.63  3.17
468.7  7912.00  250.00  3.16
470.2  8015.91  255.29  3.18
471.7  8177.13  264.10  3.23
473.2  8446.52  265.40  3.14
474.6  8688.33  266.11  3.06
476.1  8747.12  259.49  2.97
477.6  8779.39  262.70  2.99
479.1  8829.54  263.69  2.99
480.6  8916.06  257.39  2.89
482.1  9046.91  260.50  2.88
483.6  9204.08  264.84  2.88
485.1  9394.00  265.38  2.82
486.6  9626.34  271.51  2.82
488.0  9867.00  273.65  2.77
489.5  10130.90  284.89  2.81
491.0  10387.73  292.83  2.82
492.5  10649.88  291.28  2.74
494.0  10928.34  303.46  2.78
495.4  11158.95  309.54  2.77
496.9  11406.10  320.31  2.81
498.4  11649.48  327.67  2.81
499.9  11878.23  333.88  2.81
501.4  12101.58  343.42  2.84
502.8  12308.24  350.25  2.85
504.3  12497.40  356.04  2.85
505.8  12681.02  365.51  2.88
507.2  12808.72  370.61  2.89
508.7  12896.48  374.49  2.90
510.2  12964.78  376.88  2.91
511.6  13008.39  382.66  2.94
513.1  13093.74  385.97  2.95
514.6  13195.49  384.98  2.92
516.0  13281.41  382.17  2.88
517.5  13429.99  390.98  2.91
519.0  13603.01  396.07  2.91
520.5  13772.72  399.51  2.90
521.9  13993.28  408.29  2.92
523.4  14243.35  411.83  2.89
524.8  14493.24  419.39  2.89
526.3  14778.04  427.36  2.89
527.8  15074.01  442.83  2.94
529.2  15339.71  450.54  2.94
530.7  15629.94  458.83  2.94
532.1  15903.48  470.49  2.96
533.6  16214.37  480.36  2.96
535.0  16534.98  489.61  2.96
536.5  16856.03  502.32  2.98
538.0  17178.24  519.25  3.02
539.4  17501.02  534.98  3.06
540.9  17879.62  549.32  3.07
542.3  18237.67  564.51  3.10
543.8  18504.51  577.01  3.12
545.2  18600.74  584.31  3.14
546.6  18637.00  589.43  3.16
548.1  18690.38  597.71  3.20
549.5  18745.60  605.20  3.23
551.0  18790.92  617.07  3.28
552.4  18868.34  627.67  3.33
553.9  18922.09  637.60  3.37
555.3  18999.63  655.32  3.45
556.8  19143.87  666.95  3.48
558.2  19276.31  686.14  3.56
559.6  19441.66  707.27  3.64
561.1  19660.88  728.98  3.71
562.5  19883.82  757.99  3.81
564.0  20177.05  786.16  3.90
565.4  20444.07  823.05  4.03
566.8  20774.24  863.50  4.16
568.3  21077.79  907.02  4.30
569.7  21403.31  951.40  4.45
571.1  21706.83  1003.55  4.62
572.6  22010.94  1057.54  4.80
574.0  22299.75  1111.77  4.99
575.4  22570.31  1171.81  5.19
576.9  22820.49  1231.46  5.40
578.3  23040.88  1294.16  5.62
579.7  23243.15  1370.48  5.90
581.1  23410.31  1437.78  6.14
582.6  23592.46  1515.26  6.42
584.0  23735.52  1590.00  6.70
585.4  23971.18  1677.32  7.00
586.8  24286.87  1778.73  7.32
588.3  24642.54  1876.22  7.61
589.7  24935.04  1982.92  7.95
591.1  25126.37  2077.21  8.27
592.5  25213.30  2167.03  8.59
594.0  25248.06  2250.20  8.91
595.4  25246.58  2336.96  9.26
596.8  25248.80  2426.43  9.61
598.2  25256.70  2512.59  9.95
599.6  25254.00  2604.48  10.31
601.0  25321.45  2699.01  10.66
602.4  25392.58  2797.79  11.02
603.9  25508.50  2898.11  11.36
605.3  25652.08  2996.15  11.68
606.7  25770.60  3097.44  12.02
608.1  26003.60  3204.27  12.32
609.5  26249.20  3312.66  12.62
610.9  26543.12  3427.93  12.91
612.3  26820.62  3539.46  13.20
613.7  27191.20  3656.55  13.45
615.1  27470.34  3764.23  13.70
616.5  27748.85  3869.34  13.94
617.9  28163.94  3999.52  14.20
619.3  28559.37  4137.37  14.49
620.7  29021.55  4291.06  14.79
622.1  29524.34  4367.06  14.79
623.5  30070.32  4412.36  14.67
624.9  30686.25  4473.58  14.58
626.3  31117.56  4541.58  14.59
627.7  30854.43  4559.98  14.78
629.1  30617.27  4624.41  15.10
630.5  30534.25  4725.97  15.48
631.9  30583.88  4842.19  15.83
633.3  30636.73  4947.57  16.15
634.7  30802.72  5062.30  16.43
636.1  30887.16  5123.39  16.59
637.5  30991.21  5171.81  16.69
638.9  31137.59  5211.92  16.74
640.2  31275.86  5246.79  16.78
641.6  31334.94  5263.60  16.80
643.0  31307.82  5251.12  16.77
644.4  31297.86  5236.91  16.73
645.8  31223.60  5203.05  16.66
647.2  31327.01  5193.92  16.58
648.5  31378.61  5193.84  16.55
649.9  31215.99  5169.37  16.56
651.3  31061.55  5170.89  16.65
652.7  30880.50  5170.38  16.74
654.1  30705.72  4995.77  16.27
655.5  30448.41  4781.69  15.70
656.8  30219.54  4587.89  15.18
658.2  30347.48  4451.26  14.67
659.6  30667.01  4350.21  14.19
660.9  30915.41  4248.62  13.74
662.3  31175.28  4139.30  13.28
663.7  31418.10  4013.94  12.78
665.0  31622.76  3897.19  12.32
666.4  31821.65  3791.34  11.91
667.8  32088.83  3707.64  11.55
669.1  32304.87  3629.47  11.24
670.5  32567.66  3571.11  10.97
671.9  32723.64  3526.35  10.78
673.2  32957.22  3512.49  10.66
674.6  33165.65  3516.93  10.60
676.0  33416.99  3550.20  10.62
677.3  33670.84  3611.78  10.73
678.7  33959.63  3708.98  10.92
680.0  34360.72  3866.69  11.25
681.4  34770.40  4089.96  11.76
682.8  35166.95  4393.48  12.49
684.1  35575.02  4792.32  13.47
685.5  35948.61  5288.86  14.71
686.8  36307.14  5876.45  16.19
688.2  36654.12  6546.04  17.86
689.5  36792.82  7269.60  19.76
690.9  36894.22  8039.89  21.79
692.2  37000.50  8835.75  23.88
693.6  37086.31  9656.61  26.04
694.9  37102.94  10434.84  28.12
696.2  37172.03  11187.32  30.10
697.6  37238.58  11905.17  31.97
698.9  37321.68  12607.06  33.78
700.3  37412.04  13268.30  35.47
701.6  37521.51  13883.83  37.00
703.0  37648.39  14456.02  38.40
704.3  37727.46  14945.68  39.61
705.6  37779.39  15399.13  40.76
707.0  37853.11  15829.28  41.82
708.3  37804.36  16164.16  42.76
709.6  37779.31  16472.07  43.60
711.0  37700.05  16721.54  44.35
712.3  37603.29  16955.41  45.09
713.6  37599.66  17192.54  45.73
714.9  37564.50  17407.06  46.34
716.3  37606.65  17631.63  46.88
717.6  37655.10  17848.70  47.40
718.9  37643.31  17994.56  47.80
720.2  37519.65  18057.59  48.13
721.6  37437.79  18123.59  48.41
722.9  37295.06  18196.30  48.79
724.2  37099.21  18221.67  49.12
725.5  36957.59  18269.10  49.43
726.8  36833.83  18278.69  49.62
728.1  36764.75  18300.69  49.78
729.5  36694.32  18317.58  49.92
730.8  36660.60  18346.73  50.04
732.1  36590.42  18351.58  50.15
733.4  36549.03  18371.09  50.26
734.7  36509.02  18367.03  50.31
736.0  36510.50  18398.63  50.39
737.3  36452.29  18424.50  50.54
738.6  36538.42  18494.77  50.62
739.9  36706.85  18642.87  50.79
741.2  36841.35  18729.99  50.84
742.5  37078.82  18895.73  50.96
743.8  37494.19  19161.46  51.11
745.1  38118.44  19529.74  51.23
746.4  38876.11  19921.54  51.24
747.7  39639.96  20300.73  51.21
749.0  40400.48  20673.51  51.17
750.3  40850.46  20836.00  51.01
751.6  40764.46  20783.87  50.99
752.9  40356.61  20606.87  51.06
754.2  39863.99  20414.71  51.21
755.4  39350.05  20189.96  51.31
756.7  39155.03  20145.32  51.45
758.0  39142.09  20193.96  51.59
759.3  39351.46  20354.86  51.73
760.6  39645.76  20586.10  51.93
761.9  39928.94  20788.12  52.06
763.1  40078.15  20891.92  52.13
764.4  40287.45  21011.60  52.15
765.7  40433.25  21103.55  52.19
767.0  40515.07  21170.35  52.25
768.2  40595.52  21241.92  52.33
769.5  40644.33  21287.61  52.38
770.8  40787.04  21388.12  52.44
772.0  40799.41  21401.17  52.45
773.3  40833.29  21466.79  52.57
774.6  40907.98  21516.44  52.60
775.8  40955.53  21545.95  52.61
777.1  40964.33  21551.81  52.61
778.4  40867.87  21518.00  52.65
779.6  40816.98  21503.39  52.68
780.9  40688.00  21488.00  52.81
782.1  40484.72  21414.02  52.89
783.4  40464.32  21414.85  52.92
784.6  40463.12  21435.10  52.97
785.9  40670.74  21625.65  53.17
787.1  41171.80  21914.36  53.23
788.4  41528.97  22051.55  53.10
789.6  41482.13  21907.82  52.81
790.9  41134.16  21633.53  52.59
792.1  40655.28  21413.44  52.67
793.4  40180.32  21177.10  52.71
794.6  39846.60  21003.78  52.71
795.8  39587.54  20873.26  52.73
797.1  39290.10  20756.78  52.83
798.3  39054.26  20675.58  52.94
799.5  38943.25  20615.37  52.94
800.8  38778.22  20546.50  52.98
802.0  38618.88  20466.56  53.00
803.2  38465.20  20371.64  52.96
804.5  38332.71  20319.59  53.01
805.7  38219.65  20239.09  52.95
806.9  38073.35  20167.02  52.97
808.1  37984.05  20141.29  53.03
809.4  37906.28  20122.00  53.08
810.6  37824.15  20084.61  53.10
811.8  37796.29  20097.05  53.17
813.0  37827.58  20123.72  53.20
814.2  37840.50  20152.43  53.26
815.4  37955.24  20192.92  53.20
816.6  38027.91  20217.76  53.17
817.9  38102.35  20209.91  53.04
819.1  38072.96  20157.61  52.94
820.3  37949.69  20072.07  52.89
821.5  37894.61  20024.36  52.84
822.7  37866.54  19997.26  52.81
823.9  37906.28  19982.62  52.72
825.1  37943.15  19958.19  52.60
826.3  38020.73  19967.02  52.52
827.5  38108.05  19960.80  52.38
828.7  38176.32  19949.09  52.26
829.9  38262.68  19948.91  52.14
831.0  38386.63  19972.63  52.03
832.2  38533.16  20007.11  51.92
833.4  38634.36  20044.83  51.88
834.6  38746.88  20086.88  51.84
835.8  38872.58  20135.12  51.80
837.0  39026.76  20227.55  51.83
838.1  39200.00  20313.47  51.82
839.3  39334.99  20373.16  51.79
840.5  39499.16  20452.60  51.78
841.7  39675.29  20586.40  51.89
842.9  39834.34  20690.73  51.94
844.0  40002.80  20784.96  51.96
845.2  40188.33  20879.64  51.95
846.4  40315.24  20958.12  51.99
847.5  40575.08  21077.72  51.95
848.7  40794.29  21201.57  51.97
849.9  41043.27  21269.65  51.82
851.0  41176.72  21287.06  51.70
852.2  41283.01  21298.24  51.59
853.3  41336.03  21290.79  51.51
854.5  41385.60  21302.33  51.47
855.6  41408.01  21305.20  51.45
856.8  41491.09  21355.12  51.47
857.9  41535.42  21377.90  51.47
859.1  41657.80  21447.04  51.48
860.2  41711.76  21446.20  51.42
861.4  41789.90  21482.68  51.41
862.5  41857.52  21521.56  51.42
863.7  41978.22  21565.95  51.37
864.8  42001.40  21583.24  51.39
865.9  42003.19  21582.56  51.38
867.1  42077.89  21575.11  51.27
868.2  42118.25  21586.13  51.25
869.3  42153.63  21582.66  51.20
870.5  42092.46  21527.60  51.14
871.6  42122.53  21550.43  51.16
872.7  42223.14  21586.78  51.13
873.9  42262.83  21587.54  51.08
875.0  42247.20  21528.78  50.96
876.1  42225.11  21528.49  50.99
877.2  42279.84  21515.88  50.89
878.3  42302.12  21467.27  50.75
879.4  42284.06  21451.31  50.73
880.5  42343.92  21445.20  50.65
881.7  42326.05  21397.09  50.55
882.8  42351.34  21351.42  50.41
883.9  42430.09  21326.27  50.26
885.0  42357.32  21254.96  50.18
886.1  42357.47  21178.73  50.00
887.2  42241.92  21056.31  49.85
888.3  42147.85  20957.92  49.72
889.4  42045.32  20832.82  49.55
890.5  41945.29  20740.32  49.45
891.6  41864.40  20699.42  49.44
892.7  41844.69  20668.11  49.39
893.8  41881.85  20664.74  49.34
894.9  41879.31  20641.11  49.29
896.0  41812.69  20561.27  49.17
897.0  41850.92  20509.08  49.01
898.1  41821.61  20508.66  49.04
899.2  41852.54  20478.89  48.93
900.3  41747.94  20400.72  48.87
901.4  41622.41  20291.75  48.75
902.4  41658.53  20279.06  48.68
903.5  41604.82  20222.45  48.61
904.6  41550.72  20194.87  48.60
905.7  41565.54  20143.75  48.46
906.7  41536.49  20090.90  48.37
907.8  41558.34  20075.07  48.31
908.9  41493.73  19967.52  48.12
909.9  41451.58  19907.70  48.03
911.0  41358.23  19846.46  47.99
912.1  41297.17  19762.45  47.85
913.1  41189.72  19669.11  47.75
914.2  41099.85  19569.09  47.61
915.2  41068.89  19504.48  47.49
916.3  41034.15  19454.79  47.41
917.3  40975.74  19366.49  47.26
918.4  40862.80  19245.00  47.10
919.4  40836.29  19140.28  46.87
920.5  40782.84  19069.18  46.76
921.5  40833.45  18986.78  46.50
922.6  40729.18  18899.52  46.40
923.6  40739.49  18811.69  46.18
924.7  40774.75  18730.80  45.94
925.7  40746.72  18637.94  45.74
926.7  40808.40  18532.72  45.41
927.8  40839.01  18421.34  45.11
928.8  40966.59  18373.98  44.85
929.9  41048.46  18309.58  44.60
930.9  41217.18  18258.87  44.30
931.9  41378.61  18251.34  44.11
932.9  41679.25  18260.70  43.81
934.0  41702.58  18176.19  43.59
935.0  41757.18  18043.72  43.21
936.0  41670.71  17940.44  43.05
937.0  41632.50  17802.06  42.76
938.1  41580.55  17707.27  42.59
939.1  41508.45  17584.01  42.36
940.1  41591.64  17454.89  41.97
941.1  41779.29  17444.95  41.76
942.1  41991.60  17394.02  41.42
943.1  42156.63  17352.20  41.16
944.1  42391.18  17339.63  40.90
945.2  42445.20  17228.06  40.59
946.2  42493.04  17108.04  40.26
947.2  42572.63  16988.93  39.91
948.2  42750.54  16907.13  39.55
949.2  42846.38  16804.29  39.22
950.2  42880.60  16668.92  38.87
951.2  42968.52  16539.10  38.49
952.2  43001.40  16392.83  38.12
953.2  43164.71  16319.49  37.81
954.2  43310.48  16193.57  37.39
955.2  43368.34  16072.25  37.06
956.2  43301.73  15943.06  36.82
957.2  43392.87  15869.21  36.57
958.2  43492.10  15798.71  36.33
959.2  43506.45  15757.56  36.22
960.1  43588.22  15675.42  35.96
961.1  43692.83  15687.64  35.90
962.1  43658.44  15603.75  35.74
963.1  43782.00  15564.51  35.55
964.1  43817.42  15554.62  35.50
965.1  43908.74  15618.40  35.57
966.1  44007.38  15584.56  35.41
967.0  44141.86  15577.10  35.29
968.0  44131.86  15565.69  35.27
969.0  44255.20  15523.56  35.08
970.0  44255.36  15539.04  35.11
971.0  44316.83  15575.83  35.15
971.9  44400.90  15526.15  34.97
972.9  44577.14  15509.80  34.79
973.9  44494.78  15528.24  34.90
974.9  44573.29  15486.19  34.74
975.8  44702.44  15468.47  34.60
976.8  44666.28  15448.71  34.59
977.8  44950.93  15419.03  34.30
978.8  44877.90  15383.79  34.28
979.7  45104.10  15445.41  34.24
981.4  47578.80  15859.60  33.33
985.3  47203.20  15819.63  33.51
989.3  47137.31  15842.12  33.61
993.3  47133.16  15926.02  33.79
997.2  47029.21  15983.93  33.99
1001.2  46955.35  16098.49  34.28
1005.2  46914.32  16283.00  34.71
1009.1  47038.13  16564.81  35.22
1013.1  47236.75  16885.29  35.75
1017.1  47375.30  17181.13  36.27
1021.0  47429.61  17426.56  36.74
1025.0  47461.87  17662.79  37.21
1029.0  47354.18  17847.84  37.69
1032.9  47271.77  18039.39  38.16
1036.9  47308.70  18293.71  38.67
1040.9  47476.08  18593.82  39.16
1044.8  47747.63  18922.27  39.63
1048.8  47970.59  19228.03  40.08
1052.7  48104.60  19470.45  40.48
1056.7  48183.46  19612.92  40.70
1060.7  48250.82  19747.28  40.93
1064.6  48272.17  19860.74  41.14
1068.6  48190.54  19885.60  41.26
1072.5  48116.11  19873.36  41.30
1076.5  48076.67  19848.29  41.28
1080.4  48048.88  19791.45  41.19
1084.4  48150.59  19727.04  40.97
1088.3  48279.53  19646.69  40.69
1092.3  48252.92  19477.19  40.36
1096.2  48221.83  19309.12  40.04
1100.2  48245.69  19172.93  39.74
1104.1  48124.97  18957.27  39.39
1108.1  48059.38  18758.92  39.03
1112.0  47955.87  18501.10  38.58
1116.0  47754.46  18181.51  38.07
1119.9  47569.76  17838.66  37.50
1123.9  47623.80  17486.53  36.72
1127.8  47592.96  16961.28  35.64
1131.8  47556.42  16299.18  34.27
1135.7  47568.82  15524.04  32.63
1139.6  47554.30  14673.07  30.86
1143.6  47510.71  13886.96  29.23
1147.5  47481.98  13236.28  27.88
1151.4  47337.52  12691.63  26.81
1155.4  47322.86  12363.93  26.13
1159.3  47329.81  12167.88  25.71
1163.2  47159.49  11977.24  25.40
1167.2  47113.86  11864.31  25.18
1171.1  47117.13  11788.93  25.02
1175.0  47022.16  11708.58  24.90
1179.0  46962.63  11638.26  24.78
1182.9  47045.30  11591.58  24.64
1186.8  47019.62  11526.64  24.51
1190.7  46784.64  11412.46  24.39
1194.7  46508.35  11301.99  24.30
1198.6  46264.68  11230.07  24.27
1202.5  46100.54  11199.60  24.29
1206.4  45962.62  11195.85  24.36
1210.3  45829.98  11211.84  24.46
1214.2  45707.13  11230.60  24.57
1218.2  45554.16  11241.59  24.68
1222.1  45384.95  11280.74  24.86
1226.0  45257.55  11332.94  25.04
1229.9  45156.00  11379.63  25.20
1233.8  45033.17  11425.02  25.37
1237.7  44950.68  11461.41  25.50
1241.6  44841.64  11479.49  25.60
1245.5  44683.61  11485.85  25.70
1249.4  44538.65  11485.83  25.79
1253.3  44401.40  11494.48  25.89
1257.2  44324.52  11515.96  25.98
1261.1  44209.48  11508.00  26.03
1265.0  44086.55  11480.81  26.04
1268.9  43910.05  11420.06  26.01
1272.8  43969.80  11408.55  25.95
1276.7  44155.69  11421.00  25.87
1280.6  44249.88  11380.85  25.72
1284.5  44188.89  11277.32  25.52
1288.4  44167.03  11171.12  25.29
1292.3  44060.50  11023.38  25.02
1296.2  43934.23  10845.15  24.68
1300.1  43787.98  10635.68  24.29
1303.9  43564.57  10389.64  23.85
1307.8  43339.22  10125.38  23.36
1311.7  43109.06  9839.33  22.82
1315.6  42877.90  9552.96  22.28
1319.5  42633.84  9231.99  21.65
1323.3  42417.44  8900.89  20.98
1327.2  42218.70  8579.38  20.32
1331.1  42002.86  8256.23  19.66
1335.0  41739.72  7927.97  18.99
1338.8  41543.11  7632.61  18.37
1342.7  41389.31  7369.31  17.80
1346.5  41042.00  7077.26  17.24
1350.4  40741.74  6814.15  16.73
1354.3  40332.24  6543.98  16.23
1358.1  39895.31  6278.95  15.74
1362.0  39644.33  6054.05  15.27
1365.8  39567.12  5852.94  14.79
1369.7  39683.68  5660.46  14.26
1373.5  39615.26  5366.49  13.55
1377.4  39354.79  4977.20  12.65
1381.2  39167.92  4540.56  11.59
1385.1  39160.09  4118.05  10.52
1389.0  39060.88  3703.70  9.48
1392.8  38834.72  3286.33  8.46
1396.6  38680.88  2921.82  7.55
1400.5  38476.57  2619.57  6.81
1404.3  38299.58  2382.84  6.22
1408.2  38263.03  2204.86  5.76
1412.0  38218.70  2068.10  5.41
1415.8  38249.29  1965.70  5.14
1419.6  38208.11  1886.50  4.94
1423.5  38172.20  1831.02  4.80
1427.3  38125.77  1786.24  4.69
1431.1  38099.78  1754.22  4.60
1434.9  38010.73  1728.82  4.55
1438.8  37949.80  1715.42  4.52
1442.6  37913.52  1703.31  4.49
1446.4  37795.09  1690.72  4.47
1450.2  37700.99  1684.43  4.47
1454.0  37583.52  1675.80  4.46
1457.8  37547.69  1678.61  4.47
1461.6  37527.24  1690.67  4.51
1465.4  37404.28  1705.48  4.56
1469.2  37216.73  1722.18  4.63
1473.0  37080.95  1749.88  4.72
1476.8  37019.78  1790.51  4.84
1480.7  36949.43  1835.74  4.97
1484.4  36826.56  1891.26  5.14
1488.2  36723.96  1958.52  5.33
1492.0  36584.11  2026.14  5.54
1495.8  36452.33  2087.32  5.73
1499.6  36350.05  2137.70  5.88
1503.4  36216.75  2165.59  5.98
1507.2  36087.28  2179.14  6.04
1510.9  35929.91  2197.74  6.12
1514.7  35749.31  2229.93  6.24
1518.5  35615.65  2275.90  6.39
1522.3  35466.30  2321.62  6.55
1526.0  35355.47  2369.10  6.70
1529.8  35294.61  2424.70  6.87
1533.6  35159.29  2470.07  7.03
1537.3  35020.99  2521.06  7.20
1541.1  34889.16  2579.62  7.39
1544.8  34754.40  2632.80  7.58
1548.6  34607.98  2678.06  7.74
1552.4  34514.76  2719.13  7.88
1556.1  34455.77  2759.45  8.01
1559.9  34373.05  2795.00  8.13
1563.6  34243.93  2836.94  8.28
1567.3  34122.03  2896.68  8.49
1571.1  33904.82  2939.63  8.67
1574.8  33749.79  2980.17  8.83
1578.6  33637.37  3024.40  8.99
1582.3  33496.17  3059.12  9.13
1586.0  33359.51  3082.46  9.24
1589.8  33217.24  3100.13  9.33
1593.5  33051.52  3122.60  9.45
1597.2  32917.71  3153.72  9.58
1600.9  32767.31  3173.16  9.68
1604.7  32613.52  3194.79  9.80
1608.4  32493.03  3222.84  9.92
1612.1  32320.35  3235.64  10.01
1615.8  32161.00  3255.32  10.12
1619.5  32072.28  3286.04  10.25
1623.2  31915.49  3309.60  10.37
1626.9  31725.78  3321.78  10.47
1630.6  31537.44  3333.55  10.57
1634.3  31397.73  3352.56  10.68
1638.0  31241.74  3351.30  10.73
1641.7  31050.65  3345.99  10.78
1645.4  30870.63  3340.83  10.82
1649.1  30683.95  3326.26  10.84
1652.8  30504.58  3318.75  10.88
1656.4  30322.32  3300.68  10.89
1660.1  30158.02  3284.37  10.89
1663.8  29966.42  3273.24  10.92
1667.5  29809.99  3256.77  10.93
1671.1  29676.54  3238.86  10.91
1674.8  29472.79  3217.21  10.92
1678.5  29413.48  3204.03  10.89
1682.1  29419.35  3189.61  10.84
1685.8  29417.21  3174.20  10.79
1689.5  29310.65  3152.24  10.75
1693.1  29167.59  3121.29  10.70
1696.8  29020.13  3088.69  10.64
1700.4  28874.60  3047.77  10.56
1704.0  28754.23  3001.96  10.44
1707.7  28493.62  2946.80  10.34
1711.3  28200.13  2883.48  10.23
1715.0  27991.44  2829.75  10.11
1718.6  27822.35  2781.76  10.00
1722.2  27677.55  2729.47  9.86
1725.9  27527.50  2685.67  9.76
1729.5  27386.37  2648.01  9.67
1733.1  27262.24  2612.51  9.58
1736.7  27144.69  2587.32  9.53
1740.3  26982.07  2551.88  9.46
1744.0  26899.89  2518.20  9.36
1747.5  26760.07  2471.10  9.23
1751.2  26551.35  2420.06  9.11
1754.8  26397.18  2375.47  9.00
1758.4  26262.14  2335.13  8.89
1762.0  26085.49  2293.44  8.79
1765.5  25956.49  2258.80  8.70
1769.1  25915.20  2246.40  8.67
1772.7  25841.75  2227.32  8.62
1776.3  25724.16  2196.06  8.54
1779.9  25608.69  2173.70  8.49
1783.5  25553.92  2157.60  8.44
1787.0  25434.82  2137.90  8.41
1790.6  25293.30  2121.80  8.39
1794.2  25193.03  2110.82  8.38
1797.8  25095.48  2104.12  8.38
1801.3  25012.46  2094.98  8.38
1804.9  24871.88  2090.82  8.41
1808.4  24792.34  2087.16  8.42
1812.0  24660.35  2068.84  8.39
1815.5  24519.60  2054.42  8.38
1819.1  24324.68  2037.72  8.38
1822.6  24164.48  2028.86  8.40
1826.2  24042.90  2017.03  8.39
1829.7  23859.90  1996.33  8.37
1833.2  23612.46  1971.05  8.35
1836.8  23400.20  1946.04  8.32
1840.3  23257.80  1925.02  8.28
1843.8  23131.92  1908.80  8.25
1847.3  23013.03  1894.52  8.23
1850.8  22865.47  1874.88  8.20
1854.3  22692.74  1833.51  8.08
1857.8  22594.00  1781.00  7.88
1861.3  22615.25  1708.33  7.55
1864.8  22605.64  1599.87  7.08
1868.3  22468.36  1472.68  6.55
1871.8  22341.12  1328.64  5.95
1875.3  22323.21  1206.66  5.41
1878.8  22320.32  1102.10  4.94
1882.3  22237.89  1018.29  4.58
1885.8  22045.10  955.69  4.34
1889.3  21861.76  884.15  4.04
1892.7  21710.01  819.00  3.77
1896.2  21503.16  795.88  3.70
1899.7  21232.37  780.93  3.68
1901.7  20074.51  396.79  1.98
1904.5  20223.67  386.17  1.91
1907.2  20168.50  422.75  2.10
1910.0  20030.00  421.53  2.10
1912.7  20048.69  390.33  1.95
1915.5  19979.54  398.91  2.00
1918.2  19877.64  386.46  1.94
1921.0  19705.09  366.19  1.86
1923.7  19733.20  378.53  1.92
1926.5  19715.86  379.40  1.92
1929.2  19701.76  375.18  1.90
1932.0  19674.16  377.62  1.92
1934.7  19635.47  372.08  1.89
1937.4  19518.79  373.75  1.91
1940.2  19475.71  379.56  1.95
1942.9  19573.26  365.40  1.87
1945.6  19572.62  368.44  1.88
1948.3  19494.00  386.58  1.98
1951.1  19465.67  389.80  2.00
1953.8  19476.00  385.50  1.98
1956.5  19368.67  398.34  2.06
1959.2  19423.04  396.18  2.04
1961.9  19438.54  399.32  2.05
1964.6  19331.55  397.17  2.05
1967.3  19375.30  390.12  2.01
1970.0  19228.16  390.72  2.03
1972.8  19159.08  408.89  2.13
1975.5  19219.42  428.76  2.23
1978.2  19120.16  417.56  2.18
1980.9  19002.89  422.68  2.22
1983.5  18950.70  408.62  2.16
1986.2  18944.10  407.40  2.15
1988.9  18909.18  435.05  2.30
1991.6  18787.78  443.19  2.36
1994.3  18678.85  449.14  2.40
1997.0  18669.58  455.57  2.44
1999.7  18631.37  449.42  2.41
2002.3  18617.79  455.96  2.45
2005.0  18540.12  478.97  2.58
2007.7  18469.93  474.43  2.57
2010.4  18400.48  458.23  2.49
2013.0  18316.11  473.70  2.59
2015.7  18226.45  488.77  2.68
2018.4  18129.14  485.07  2.68
2021.0  18062.50  498.67  2.76
2023.7  17946.51  489.02  2.72
2026.4  17902.73  481.65  2.69
2029.0  17806.29  513.13  2.88
2031.7  17677.40  505.59  2.86
2034.3  17722.47  494.33  2.79
2037.0  17610.64  498.26  2.83
2039.6  17527.07  500.78  2.86
2042.3  17481.88  494.27  2.83
2044.9  17393.81  507.71  2.92
2047.5  17348.93  514.72  2.97
2050.2  17253.60  508.20  2.95
2052.8  17214.40  515.20  2.99
2055.4  17090.17  532.32  3.11
2058.1  16973.60  525.00  3.09
2060.7  16918.14  507.30  3.00
2063.3  16842.61  519.72  3.09
2065.9  16794.67  524.84  3.13
2068.6  16710.92  524.84  3.14
2071.2  16664.67  523.13  3.14
2073.8  16591.32  531.68  3.20
2076.4  16536.88  545.90  3.30
2079.0  16525.61  540.93  3.27
2081.6  16519.89  542.98  3.29
2084.2  16487.00  550.23  3.34
2086.8  16353.42  558.60  3.42
2089.4  16268.28  557.41  3.43
2092.1  16209.50  555.34  3.43
2094.7  16113.80  555.12  3.44
2097.2  16087.67  552.50  3.43
2099.8  16089.36  552.26  3.43
2102.4  15953.94  558.72  3.50
2105.0  15826.05  560.03  3.54
2107.6  15774.07  572.52  3.63
2110.2  15742.83  576.86  3.66
2112.8  15734.02  568.37  3.61
2115.3  15735.22  580.22  3.69
2117.9  15738.64  578.89  3.68
2120.5  15682.70  581.55  3.71
2123.1  15604.88  589.39  3.78
2125.6  15567.02  582.74  3.74
2128.2  15487.92  582.41  3.76
2130.8  15394.28  602.56  3.91
2133.3  15347.20  599.87  3.91
2135.9  15264.31  572.16  3.75
2138.4  15119.35  596.70  3.95
2141.0  15032.51  611.17  4.07
2143.6  14998.41  596.60  3.98
2146.1  14847.40  600.89  4.05
2148.7  14686.27  609.36  4.15
2151.2  14704.80  596.93  4.06
2153.8  14713.72  597.50  4.06
2156.3  14589.47  612.82  4.20
2158.8  14533.35  603.96  4.16
2161.4  14517.59  608.83  4.19
2163.9  14426.20  617.68  4.28
2166.4  14354.62  598.73  4.17
2169.0  14310.27  603.16  4.21
2171.5  14227.48  607.60  4.27
2174.0  14143.15  602.44  4.26
2176.5  14124.76  599.50  4.24
2179.1  14082.55  597.82  4.25
2181.6  13967.33  605.30  4.33
2184.1  13937.00  619.08  4.44
2186.6  13993.83  605.70  4.33
2189.1  13896.09  597.06  4.30
2191.6  13840.87  619.04  4.47
2194.1  13877.92  609.53  4.39
2196.6  13844.81  584.23  4.22
2199.2  13897.52  610.46  4.39
2201.7  13871.80  619.63  4.47
2204.1  13802.39  606.56  4.39
2206.6  13786.08  626.64  4.55
2209.1  13743.34  620.75  4.52
2211.6  13738.26  605.26  4.41
2214.1  13693.60  608.27  4.44
2216.6  13643.61  596.34  4.37
2219.1  13655.01  590.64  4.33
2221.6  13597.41  591.94  4.35
2224.0  13563.60  594.36  4.38
2226.5  13534.39  580.27  4.29
2229.0  13551.73  590.04  4.35
2231.5  13416.49  597.48  4.45
2233.9  13376.81  586.88  4.39
2236.4  13409.64  590.58  4.40
2238.9  13341.63  561.88  4.21
2241.3  13300.17  549.97  4.14
2243.8  13261.31  565.51  4.26
2246.2  13153.53  542.74  4.13
2248.7  13089.53  532.22  4.07
2251.2  13067.33  541.91  4.15
2253.6  13017.60  508.80  3.91
2256.1  12979.20  499.20  3.85
2258.5  12980.99  524.39  4.04
2260.9  12912.45  506.22  3.92
2263.4  12850.74  497.07  3.87
2265.8  12840.17  505.84  3.94
2268.3  12768.77  461.80  3.62
2270.7  12812.36  458.68  3.58
2273.1  12778.22  479.38  3.75
2275.6  12710.40  464.64  3.66
2278.0  12729.12  461.20  3.62
2280.4  12680.26  471.42  3.72
2282.8  12544.20  470.41  3.75
2285.3  12570.98  454.94  3.62
2287.7  12679.54  464.70  3.66
2290.1  12579.51  440.80  3.50
2292.5  12520.09  422.63  3.38
2294.9  12538.64  440.62  3.51
2297.3  12458.25  433.08  3.48
2299.7  12334.59  402.73  3.27
2302.1  12311.40  402.66  3.27
2304.5  12214.72  401.80  3.29
2306.9  12089.28  366.52  3.03
2309.3  11994.02  391.84  3.27
2311.7  11939.85  394.47  3.30
2314.1  11791.37  356.42  3.02
2316.5  11721.50  378.24  3.23
2318.9  11765.88  380.37  3.23
2321.3  11730.50  348.63  2.97
2323.7  11744.39  387.36  3.30
2326.1  11719.24  372.78  3.18
2328.4  11761.55  335.64  2.85
2330.8  11807.83  386.51  3.27
2333.2  11712.54  380.95  3.25
2335.6  11662.03  346.67  2.97
2337.9  11681.16  356.82  3.05
2340.3  11629.38  363.16  3.12
2342.7  11548.22  340.65  2.95
2345.0  11508.47  343.98  2.99
2347.4  11492.00  340.00  2.96
2349.7  11315.65  322.52  2.85
2352.1  11286.89  336.64  2.98
2354.4  11296.02  320.23  2.83
2356.8  11214.70  289.22  2.58
2359.2  11154.00  301.17  2.70
2361.5  11109.05  309.80  2.79
2363.8  11141.66  305.22  2.74
2366.2  11165.73  317.76  2.85
2368.5  11089.40  304.83  2.75
2370.9  11067.03  290.77  2.63
2373.2  11030.32  292.28  2.65
2375.5  10914.30  296.39  2.72
2377.9  10876.18  289.46  2.66
2380.2  10876.88  304.68  2.80
2382.5  10821.23  298.68  2.76
2384.8  10769.44  266.80  2.48
2387.2  10736.28  276.62  2.58
2389.5  10704.02  280.94  2.62
2391.8  10661.73  287.58  2.70
2394.1  10613.91  285.50  2.69
2396.4  10610.47  268.53  2.53
2398.7  10654.34  263.07  2.47
2401.0  10513.07  276.93  2.63
2403.3  10428.12  271.41  2.60
2405.6  10456.51  254.92  2.44
2407.9  10375.71  278.06  2.68
2410.2  10317.44  278.24  2.70
2412.5  10224.31  261.71  2.56
2414.8  10187.84  274.73  2.70
2417.1  10204.62  270.99  2.66
2419.4  10195.97  257.90  2.53
2421.7  10103.31  249.69  2.47
2424.0  10048.90  229.83  2.29
2426.2  10074.05  222.03  2.20
2428.5  10032.46  235.26  2.34
2430.8  10006.20  226.18  2.26
2433.1  9945.94  246.16  2.47
2435.4  9886.37  274.16  2.77
2437.6  9830.42  218.21  2.22
2439.9  9708.34  174.07  1.79
2442.2  9709.99  207.63  2.14
2444.4  9752.18  229.74  2.36
2446.7  9688.56  204.40  2.11
2448.9  9658.24  236.87  2.45
2451.2  9631.36  214.56  2.23
2453.4  9564.32  174.78  1.83
2455.7  9566.46  225.03  2.35
2457.9  9468.86  198.42  2.10
2460.2  9395.46  184.96  1.97
2462.4  9422.40  212.16  2.25
2464.7  9348.95  189.25  2.02
2466.9  9251.22  154.08  1.67
2469.2  9249.34  187.97  2.03
2471.4  9151.61  180.54  1.97
2473.6  9078.42  164.03  1.81
2475.9  9042.40  220.14  2.43
2478.1  8956.32  187.88  2.10
2480.3  8952.70  160.12  1.79
2482.5  8971.16  171.56  1.91
2484.8  8832.66  160.20  1.81
2487.0  8762.09  137.03  1.56
2489.2  8850.00  147.00  1.66
2491.4  8753.22  195.97  2.24
2493.6  8669.20  145.01  1.67
2495.8  8662.66  166.29  1.92
2498.0  8674.13  202.67  2.34
2500.2  8694.60  151.66  1.74
2502.4  8942.16  177.60  1.99
2504.6  9089.52  201.89  2.22
2506.8  9176.65  194.84  2.12
