/*** Spectra Vista SIG Data ***/
name= S2.sig
comm= Resampled spectral data SIG file reprocesed for matching/overlap;Averaged Ref/Tar of files: RD3S4,RD3S5,RD3S6
data=
346.0  598.78  182.61  30.50
356.0  924.17  209.38  22.66
366.0  1234.61  233.32  18.90
376.0  1691.57  250.31  14.80
386.0  2110.32  241.66  11.45
396.0  2699.64  300.09  11.12
406.0  3258.06  287.17  8.81
416.0  3980.12  342.80  8.61
426.0  4560.62  355.14  7.79
436.0  5560.57  392.00  7.05
446.0  6459.13  444.51  6.88
456.0  7345.42  484.01  6.59
466.0  8824.96  569.12  6.45
476.0  10121.58  629.29  6.22
486.0  10943.49  638.37  5.83
496.0  12761.25  751.44  5.89
506.0  14311.81  892.78  6.24
516.0  15112.04  1001.77  6.63
526.0  16957.18  1158.52  6.83
536.0  19355.60  1379.24  7.13
546.0  21330.59  1608.64  7.54
556.0  21581.55  1785.77  8.27
566.0  23226.44  2248.52  9.68
576.0  25810.52  3108.39  12.04
586.0  27755.51  4319.85  15.56
596.0  29194.08  5805.91  19.89
606.0  29534.45  7282.82  24.66
616.0  31318.23  9131.34  29.16
626.0  34410.58  11657.78  33.88
636.0  34069.21  12814.74  37.61
646.0  34679.65  12421.82  35.82
656.0  34069.42  11399.27  33.46
666.0  35802.93  10202.33  28.50
676.0  37841.78  9795.33  25.88
686.0  40854.13  14358.52  35.15
696.0  41747.28  24735.48  59.25
706.0  41971.06  31523.34  75.11
716.0  41223.34  34075.93  82.66
726.0  40067.78  34551.57  86.23
736.0  39511.29  34461.12  87.22
746.0  41985.01  36984.98  88.09
756.0  42844.63  37785.51  88.19
766.0  44461.06  39552.32  88.96
776.0  45318.27  40567.84  89.52
786.0  45304.05  40866.29  90.20
796.0  44083.17  39940.36  90.60
806.0  42558.06  38795.21  91.16
816.0  42205.19  38482.46  91.18
826.0  41881.04  37846.09  90.37
836.0  42513.48  37697.25  88.67
846.0  43677.73  38518.15  88.19
856.0  44639.93  39123.47  87.64
866.0  45173.91  39369.19  87.15
876.0  45452.84  39225.84  86.30
886.0  45709.40  38845.63  84.98
896.0  45235.90  37805.18  83.57
906.0  45023.00  37047.91  82.29
916.0  44495.20  35897.23  80.68
926.0  44269.25  34477.54  77.88
936.0  45413.73  33466.08  73.69
946.0  46396.61  32099.89  69.19
956.0  47429.46  30291.27  63.87
966.0  48326.20  29625.10  61.30
976.0  49108.57  29915.35  60.92
986.0  50490.65  28762.21  56.97
996.0  50607.35  29801.15  58.89
1006.0  50486.13  30572.44  60.56
1016.0  50803.76  31791.21  62.58
1026.0  50772.47  32881.63  64.76
1036.0  50488.61  33730.63  66.81
1046.0  50910.83  34960.22  68.67
1056.0  51254.42  35903.31  70.05
1066.0  51336.62  36316.44  70.74
1076.0  51162.22  36208.98  70.77
1086.0  51303.09  35960.75  70.09
1096.0  51344.30  35328.06  68.81
1106.0  51211.90  34427.46  67.23
1116.0  50831.30  33247.85  65.41
1126.0  50674.44  31643.03  62.44
1136.0  50616.91  28819.27  56.94
1146.0  50531.75  25532.76  50.53
1156.0  50358.44  23419.56  46.51
1166.0  50175.54  22567.80  44.98
1176.0  50092.24  22189.96  44.30
1186.0  50160.75  21934.84  43.73
1196.0  49589.85  21481.72  43.32
1206.0  49136.73  21281.21  43.31
1216.0  48856.16  21338.63  43.68
1226.0  48538.40  21517.42  44.33
1236.0  48332.55  21716.21  44.93
1246.0  48044.92  21822.95  45.42
1256.0  47756.51  21847.23  45.75
1266.0  47442.71  21754.57  45.85
1276.0  47551.66  21676.31  45.58
1286.0  47606.03  21374.47  44.90
1296.0  47326.24  20709.11  43.76
1306.0  46758.50  19665.38  42.06
1316.0  46095.57  18382.22  39.88
1326.0  45453.96  16932.44  37.25
1336.0  44765.54  15478.76  34.58
1346.0  44091.89  14176.75  32.15
1356.0  43065.01  12949.78  30.07
1366.0  42453.65  11871.38  27.96
1376.0  42338.17  10617.89  25.08
1386.0  41985.88  8645.36  20.59
1396.0  41548.36  6641.76  15.99
1406.0  41106.41  5247.99  12.77
1416.0  41061.27  4501.43  10.96
1426.0  40954.01  4132.66  10.09
1436.0  40796.14  3959.51  9.71
1446.0  40594.32  3871.15  9.54
1456.0  40330.62  3828.79  9.49
1466.0  40125.74  3873.75  9.65
1476.0  39754.25  4007.35  10.08
1486.0  39484.92  4267.64  10.81
1496.0  39151.21  4595.61  11.74
1506.0  38800.67  4801.76  12.38
1516.0  38385.61  4956.18  12.91
1526.0  38038.86  5177.88  13.61
1536.0  37757.73  5413.35  14.34
1546.0  37407.06  5638.28  15.07
1556.0  37137.95  5870.22  15.81
1566.0  36823.70  6088.79  16.53
1576.0  36372.01  6314.84  17.36
1586.0  36009.48  6475.59  17.98
1596.0  35619.37  6581.10  18.48
1606.0  35232.08  6688.50  18.98
1616.0  34829.65  6786.55  19.48
1626.0  34452.68  6877.99  19.96
1636.0  34007.58  6934.73  20.39
1646.0  33523.68  6952.02  20.74
1656.0  33037.62  6919.83  20.95
1666.0  32548.04  6854.84  21.06
1676.0  32123.29  6750.10  21.01
1686.0  32117.51  6661.37  20.74
1696.0  31764.57  6484.55  20.41
1706.0  31316.98  6234.85  19.91
1716.0  30611.05  5912.12  19.31
1726.0  30177.81  5643.43  18.70
1736.0  29812.17  5469.46  18.35
1746.0  29439.81  5289.00  17.97
1756.0  28928.41  5029.54  17.39
1766.0  28491.94  4827.02  16.94
1776.0  28263.25  4709.58  16.66
1786.0  27973.79  4594.34  16.42
1796.0  27612.53  4506.46  16.32
1806.0  27286.01  4457.45  16.34
1816.0  26879.26  4388.52  16.33
1826.0  26408.56  4299.14  16.28
1836.0  25765.82  4148.77  16.10
1846.0  25402.19  4000.65  15.75
1856.0  25067.72  3760.73  15.00
1866.0  24868.79  3317.31  13.34
1876.0  24488.38  2650.47  10.82
1886.0  24233.30  2063.39  8.51
1896.0  23683.96  1749.71  7.39
1906.0  22096.75  1007.82  4.56
1916.0  21802.32  1027.09  4.71
1926.0  21588.87  1019.15  4.72
1936.0  21449.43  1026.20  4.78
1946.0  21420.23  1059.30  4.95
1956.0  21201.75  1071.17  5.05
1966.0  21198.12  1108.86  5.23
1976.0  21006.67  1143.67  5.44
1986.0  20732.55  1177.10  5.68
1996.0  20450.49  1209.38  5.91
2006.0  20269.19  1257.13  6.20
2016.0  19957.87  1291.87  6.47
2026.0  19629.85  1293.32  6.59
2036.0  19319.95  1326.88  6.87
2046.0  19073.35  1355.57  7.11
2056.0  18736.02  1373.26  7.33
2066.0  18425.00  1380.08  7.49
2076.0  18163.31  1396.43  7.69
2086.0  17998.96  1431.84  7.96
2096.0  17698.67  1455.71  8.22
2106.0  17393.37  1459.09  8.39
2116.0  17301.34  1503.69  8.69
2126.0  17117.10  1527.56  8.92
2136.0  16805.93  1538.91  9.16
2146.0  16338.81  1543.93  9.45
2156.0  16108.43  1547.51  9.61
2166.0  15818.08  1540.32  9.74
2176.0  15571.16  1542.89  9.91
2186.0  15407.91  1539.08  9.99
2196.0  15291.27  1543.22  10.09
2206.0  15252.10  1550.76  10.17
2216.0  15137.72  1537.78  10.16
2226.0  14957.58  1512.51  10.11
2236.0  14828.49  1471.44  9.92
2246.0  14572.63  1407.22  9.66
2256.0  14413.52  1308.83  9.08
2266.0  14283.01  1272.47  8.91
2276.0  14142.85  1223.64  8.65
2286.0  14066.30  1153.53  8.20
2296.0  13956.39  1093.88  7.84
2306.0  13536.25  1013.32  7.49
2316.0  13130.37  968.67  7.38
2326.0  13082.91  971.92  7.43
2336.0  13030.52  941.77  7.23
2346.0  12874.44  912.03  7.08
2356.0  12605.38  858.25  6.81
2366.0  12490.11  827.29  6.62
2376.0  12262.88  785.08  6.40
2386.0  12077.58  773.51  6.40
2396.0  11871.57  729.50  6.14
2406.0  11728.43  704.99  6.01
2416.0  11508.86  675.33  5.87
2426.0  11344.58  617.27  5.44
2436.0  11091.32  611.38  5.51
2446.0  10929.32  553.17  5.06
2456.0  10711.77  544.22  5.08
2466.0  10484.26  513.94  4.90
2476.0  10216.57  485.40  4.75
2486.0  9941.47  446.26  4.49
2496.0  9864.73  482.53  4.89
2506.0  10308.86  420.43  4.08
