/*** Spectra Vista SIG Data ***/
name= S2.sig
comm= SIG file reprocesed for matching/overlap;Averaged Ref/Tar of files: RD3S4,RD3S5,RD3S6
data=
346.4  598.78  182.61  30.50
347.9  627.50  186.16  29.67
349.5  677.04  190.32  28.11
351.1  739.44  191.36  25.88
352.6  790.63  200.29  25.33
354.2  841.03  199.62  23.74
355.7  912.59  205.42  22.51
357.3  974.37  226.54  23.25
358.8  992.58  220.19  22.18
360.4  1062.29  233.33  21.96
361.9  1117.88  232.17  20.77
363.5  1149.55  231.99  20.18
365.1  1196.29  227.70  19.03
366.6  1260.16  237.07  18.81
368.2  1349.72  232.79  17.25
369.7  1403.95  235.08  16.74
371.3  1488.21  228.28  15.34
372.8  1577.00  236.83  15.02
374.4  1638.71  244.75  14.94
375.9  1688.10  250.46  14.84
377.4  1740.09  248.28  14.27
379.0  1788.57  249.30  13.94
380.5  1855.73  241.07  12.99
382.1  1905.98  235.42  12.35
383.6  1973.16  236.25  11.97
385.2  2065.25  238.33  11.54
386.7  2149.76  244.58  11.38
388.3  2271.83  251.83  11.08
389.8  2363.45  257.12  10.88
391.3  2453.59  270.15  11.01
392.9  2526.36  273.12  10.81
394.4  2602.50  278.95  10.72
395.9  2690.98  299.35  11.12
397.5  2829.48  311.16  11.00
399.0  2963.31  311.06  10.50
400.6  3033.76  303.75  10.01
402.1  3072.78  295.84  9.63
403.6  3116.75  286.10  9.18
405.1  3199.00  284.86  8.90
406.7  3304.00  288.96  8.75
408.2  3412.53  295.52  8.66
409.7  3521.28  300.16  8.52
411.3  3642.17  309.83  8.51
412.8  3732.75  319.95  8.57
414.3  3845.02  332.86  8.66
415.8  3965.00  342.50  8.64
417.4  4085.95  344.92  8.44
418.9  4192.21  356.73  8.51
420.4  4267.16  356.43  8.35
421.9  4346.32  352.51  8.11
423.5  4413.15  360.37  8.17
425.0  4492.75  357.35  7.95
426.5  4594.55  354.03  7.71
428.0  4712.54  356.45  7.56
429.5  4856.53  360.77  7.43
431.1  5025.20  365.07  7.26
432.6  5198.44  373.61  7.19
434.1  5370.75  381.15  7.10
435.6  5520.56  388.94  7.05
437.1  5670.60  400.40  7.06
438.6  5806.58  408.72  7.04
440.1  5943.54  415.01  6.98
441.6  6091.61  424.53  6.97
443.1  6230.93  429.30  6.89
444.7  6356.12  437.72  6.89
446.2  6474.98  445.56  6.88
447.7  6582.53  455.23  6.92
449.2  6691.68  464.40  6.94
450.7  6814.08  465.92  6.84
452.2  6930.56  463.74  6.69
453.7  7066.33  468.73  6.63
455.2  7233.85  478.67  6.62
456.7  7443.04  488.69  6.57
458.2  7673.27  497.46  6.48
459.7  7920.50  509.25  6.43
461.2  8156.07  524.21  6.43
462.7  8366.46  538.79  6.44
464.2  8568.06  552.66  6.45
465.7  8788.58  566.38  6.44
467.2  8970.50  580.07  6.47
468.7  9176.00  596.00  6.50
470.2  9305.26  610.59  6.56
471.7  9490.50  627.80  6.62
473.2  9788.42  635.33  6.49
474.6  10042.30  644.19  6.41
476.1  10127.24  628.23  6.20
477.6  10169.21  623.79  6.13
479.1  10224.56  619.39  6.06
480.6  10293.47  620.23  6.03
482.1  10426.95  619.82  5.94
483.6  10590.11  624.03  5.89
485.1  10796.39  631.30  5.85
486.6  11041.55  643.08  5.82
488.0  11290.50  655.96  5.81
489.5  11568.25  669.69  5.79
491.0  11840.59  686.93  5.80
492.5  12119.22  704.16  5.81
494.0  12409.65  722.67  5.82
495.4  12660.45  743.60  5.87
496.9  12912.44  763.19  5.91
498.4  13155.80  785.89  5.97
499.9  13408.52  803.22  5.99
501.4  13645.90  827.72  6.07
502.8  13864.50  844.30  6.09
504.3  14081.40  870.60  6.18
505.8  14291.05  890.60  6.23
507.2  14436.37  905.89  6.28
508.7  14548.87  924.42  6.35
510.2  14651.50  940.62  6.42
511.6  14718.08  954.44  6.48
513.1  14838.45  971.15  6.54
514.6  14986.45  989.68  6.60
516.0  15112.04  1001.77  6.63
517.5  15305.31  1018.39  6.65
519.0  15537.89  1038.66  6.68
520.5  15768.60  1058.89  6.72
521.9  16045.99  1083.06  6.75
523.4  16363.11  1106.93  6.76
524.8  16675.79  1135.92  6.81
526.3  17027.53  1164.17  6.84
527.8  17380.80  1198.13  6.89
529.2  17706.86  1227.11  6.93
530.7  18056.71  1258.69  6.97
532.1  18377.28  1287.88  7.01
533.6  18738.23  1318.71  7.04
535.0  19114.67  1357.71  7.10
536.5  19476.07  1390.01  7.14
538.0  19846.24  1429.07  7.20
539.4  20198.95  1468.16  7.27
540.9  20626.19  1506.78  7.31
542.3  20984.92  1547.28  7.37
543.8  21250.33  1583.06  7.45
545.2  21329.19  1598.98  7.50
546.6  21331.64  1615.89  7.58
548.1  21362.06  1630.59  7.63
549.5  21376.46  1657.79  7.76
551.0  21386.66  1681.84  7.86
552.4  21443.54  1709.51  7.97
553.9  21463.89  1738.69  8.10
555.3  21521.57  1767.29  8.21
556.8  21650.10  1806.90  8.35
558.2  21773.81  1852.88  8.51
559.6  21936.94  1903.68  8.68
561.1  22168.25  1966.25  8.87
562.5  22423.78  2034.64  9.07
564.0  22757.43  2121.79  9.32
565.4  23059.14  2205.17  9.56
566.8  23449.52  2306.33  9.84
568.3  23818.66  2409.60  10.12
569.7  24198.01  2525.67  10.44
571.1  24579.14  2647.59  10.77
572.6  24952.86  2773.44  11.11
574.0  25317.60  2908.40  11.49
575.4  25678.69  3050.44  11.88
576.9  26008.29  3195.31  12.29
578.3  26306.64  3355.14  12.75
579.7  26593.28  3513.99  13.21
581.1  26823.10  3673.04  13.69
582.6  27065.10  3850.84  14.23
584.0  27286.52  4025.88  14.75
585.4  27587.92  4224.34  15.31
586.8  27978.96  4447.20  15.89
588.3  28419.30  4679.22  16.46
589.7  28786.68  4921.80  17.10
591.1  29016.81  5135.73  17.70
592.5  29127.43  5334.22  18.31
594.0  29186.34  5523.36  18.92
595.4  29194.56  5723.95  19.61
596.8  29193.45  5915.20  20.26
598.2  29177.08  6110.56  20.94
599.6  29153.88  6303.84  21.62
601.0  29216.28  6510.98  22.29
602.4  29261.60  6726.85  22.99
603.9  29364.60  6945.82  23.65
605.3  29484.10  7172.43  24.33
606.7  29584.80  7393.20  24.99
608.1  29785.49  7639.73  25.65
609.5  30013.28  7890.06  26.29
610.9  30296.78  8153.96  26.91
612.3  30557.28  8417.31  27.55
613.7  30914.00  8707.85  28.17
615.1  31159.08  8965.62  28.77
616.5  31406.64  9223.40  29.37
617.9  31801.61  9530.07  29.97
619.3  32170.62  9836.51  30.58
620.7  32635.92  10170.20  31.16
622.1  33083.75  10530.28  31.83
623.5  33564.04  10932.45  32.57
624.9  34116.86  11361.87  33.30
626.3  34490.69  11738.48  34.03
627.7  34145.81  11859.43  34.73
629.1  33851.16  11964.68  35.34
630.5  33743.57  12121.83  35.92
631.9  33775.53  12312.03  36.45
633.3  33808.52  12486.94  36.93
634.7  33992.91  12687.88  37.33
636.1  34075.08  12824.50  37.64
637.5  34196.58  12915.05  37.77
638.9  34374.61  12967.00  37.72
640.2  34545.58  12958.92  37.51
641.6  34634.34  12891.84  37.22
643.0  34657.83  12750.56  36.79
644.4  34696.37  12603.29  36.32
645.8  34653.86  12431.46  35.87
647.2  34834.41  12364.00  35.49
648.5  34958.93  12275.24  35.11
649.9  34861.32  12118.15  34.76
651.3  34789.65  12003.70  34.50
652.7  34680.00  11879.60  34.25
654.1  34452.30  11701.40  33.96
655.5  34172.42  11490.39  33.62
656.8  33904.63  11253.49  33.19
658.2  34070.04  11131.80  32.67
659.6  34442.82  11044.99  32.07
660.9  34748.70  10901.43  31.37
662.3  35067.95  10735.60  30.61
663.7  35364.00  10543.40  29.81
665.0  35617.00  10339.61  29.03
666.4  35877.31  10147.41  28.28
667.8  36209.10  10002.37  27.62
669.1  36482.80  9861.68  27.03
670.5  36799.72  9776.09  26.57
671.9  36995.40  9699.52  26.22
673.2  37270.13  9682.40  25.98
674.6  37530.47  9703.71  25.86
676.0  37841.78  9795.33  25.88
677.3  38141.57  9948.46  26.08
678.7  38483.75  10204.25  26.52
680.0  38922.37  10591.90  27.21
681.4  39389.45  11136.29  28.27
682.8  39844.35  11854.27  29.75
684.1  40287.78  12768.60  31.69
685.5  40705.56  13867.23  34.07
686.8  41091.84  15144.58  36.86
688.2  41433.89  16552.37  39.95
689.5  41549.57  17978.11  43.27
690.9  41633.44  19439.11  46.69
692.2  41697.60  20903.20  50.13
693.6  41771.65  22325.27  53.45
694.9  41721.88  23648.39  56.68
696.2  41751.90  24933.15  59.72
697.6  41766.04  26118.90  62.54
698.9  41796.48  27214.88  65.11
700.3  41844.24  28222.79  67.45
701.6  41918.48  29159.07  69.56
703.0  41979.40  29999.21  71.46
704.3  41981.71  30726.37  73.19
705.6  41967.18  31357.74  74.72
707.0  41980.75  31937.30  76.08
708.3  41872.71  32389.38  77.35
709.6  41753.67  32777.44  78.50
711.0  41589.99  33081.83  79.54
712.3  41418.66  33337.45  80.49
713.6  41354.04  33630.66  81.32
714.9  41240.96  33862.36  82.11
716.3  41218.54  34134.18  82.81
717.6  41221.95  34411.32  83.48
718.9  41134.56  34554.40  84.00
720.2  40936.00  34611.99  84.55
721.6  40765.66  34673.04  85.05
722.9  40572.15  34670.03  85.45
724.2  40305.71  34599.11  85.84
725.5  40134.57  34571.50  86.14
726.8  39960.91  34519.68  86.38
728.1  39855.98  34530.48  86.64
729.5  39766.23  34512.73  86.79
730.8  39707.44  34510.75  86.91
732.1  39612.07  34463.07  87.00
733.4  39556.45  34448.14  87.09
734.7  39507.57  34426.25  87.14
736.0  39511.29  34461.12  87.22
737.3  39463.58  34448.31  87.29
738.6  39569.04  34581.26  87.39
739.9  39770.92  34798.77  87.50
741.2  39928.98  34973.12  87.59
742.5  40206.42  35285.10  87.76
743.8  40696.43  35757.84  87.86
745.1  41398.16  36437.31  88.02
746.4  42245.84  37228.40  88.12
747.7  43136.62  38026.29  88.15
749.0  43980.49  38762.55  88.14
750.3  44484.44  39160.73  88.03
751.6  44396.66  39079.91  88.02
752.9  43969.12  38669.87  87.95
754.2  43470.53  38252.76  88.00
755.4  42928.75  37832.95  88.13
756.7  42746.48  37730.15  88.26
758.0  42774.71  37812.37  88.40
759.3  43048.01  38107.06  88.52
760.6  43418.76  38482.55  88.63
761.9  43775.94  38838.86  88.72
763.1  43996.61  39064.59  88.79
764.4  44239.34  39320.30  88.88
765.7  44424.25  39513.50  88.95
767.0  44583.75  39681.74  89.00
768.2  44688.00  39824.96  89.12
769.5  44782.92  39936.91  89.18
770.8  44990.42  40147.42  89.24
772.0  45014.41  40202.66  89.31
773.3  45100.97  40304.19  89.36
774.6  45226.84  40439.13  89.41
775.8  45313.45  40559.35  89.51
777.1  45344.81  40614.51  89.57
778.4  45245.88  40575.23  89.68
779.6  45226.44  40583.80  89.73
780.9  45132.00  40541.33  89.83
782.1  44952.26  40411.42  89.90
783.4  44936.32  40439.36  89.99
784.6  44935.72  40485.95  90.10
785.9  45255.62  40819.41  90.20
787.1  45836.93  41382.06  90.28
788.4  46288.94  41813.12  90.33
789.6  46219.23  41707.47  90.24
790.9  45788.99  41278.08  90.15
792.1  45296.16  40856.99  90.20
793.4  44771.54  40479.05  90.41
794.6  44415.30  40209.27  90.53
795.8  44134.47  39981.51  90.59
797.1  43801.05  39714.05  90.67
798.3  43569.08  39541.29  90.76
799.5  43411.48  39454.29  90.88
800.8  43273.13  39336.89  90.90
802.0  43071.08  39204.97  91.02
803.2  42890.28  39063.35  91.08
804.5  42742.15  38950.79  91.13
805.7  42601.95  38828.68  91.14
806.9  42426.40  38694.79  91.20
808.1  42305.67  38600.13  91.24
809.4  42221.44  38512.79  91.22
810.6  42105.70  38421.72  91.25
811.8  42062.43  38393.76  91.28
813.0  42071.08  38389.69  91.25
814.2  42081.20  38397.55  91.25
815.4  42185.03  38480.63  91.22
816.6  42225.34  38484.29  91.14
817.9  42273.21  38489.86  91.05
819.1  42166.58  38386.89  91.04
820.3  42039.03  38229.82  90.94
821.5  41905.07  38079.16  90.87
822.7  41849.58  37977.18  90.75
823.9  41838.35  37930.69  90.66
825.1  41851.34  37876.35  90.50
826.3  41890.94  37836.00  90.32
827.5  41937.05  37779.12  90.09
828.7  42011.28  37740.08  89.83
829.9  42039.57  37672.83  89.61
831.0  42140.75  37669.81  89.39
832.2  42235.78  37654.89  89.15
833.4  42305.18  37658.89  89.02
834.6  42417.19  37675.00  88.82
835.8  42496.65  37689.75  88.69
837.0  42597.61  37734.77  88.58
838.1  42745.68  37835.04  88.51
839.3  42856.00  37896.72  88.43
840.5  42989.60  37987.29  88.36
841.7  43156.80  38106.86  88.30
842.9  43298.86  38222.98  88.28
844.0  43430.88  38301.65  88.19
845.2  43568.90  38437.58  88.22
846.4  43732.15  38558.44  88.17
847.5  43960.00  38732.43  88.11
848.7  44164.79  38889.95  88.06
849.9  44393.85  39040.55  87.94
851.0  44478.08  39100.03  87.91
852.2  44569.63  39154.76  87.85
853.3  44562.81  39135.33  87.82
854.5  44594.90  39112.35  87.71
855.6  44615.97  39108.57  87.66
856.8  44687.86  39153.28  87.62
857.9  44681.40  39143.75  87.61
859.1  44832.20  39266.67  87.59
860.2  44876.88  39247.91  87.46
861.4  44954.55  39295.96  87.41
862.5  45021.69  39358.46  87.42
863.7  45150.84  39428.33  87.33
864.8  45213.35  39427.85  87.20
865.9  45167.77  39367.17  87.16
867.1  45241.43  39391.39  87.07
868.2  45295.54  39397.50  86.98
869.3  45314.27  39397.47  86.94
870.5  45282.48  39333.98  86.86
871.6  45315.83  39306.62  86.74
872.7  45413.27  39327.72  86.60
873.9  45478.16  39336.64  86.50
875.0  45456.71  39272.90  86.40
876.1  45452.45  39221.13  86.29
877.2  45498.99  39214.72  86.19
878.3  45519.98  39182.49  86.08
879.4  45563.53  39153.41  85.93
880.5  45631.08  39139.56  85.77
881.7  45596.20  39067.17  85.68
882.8  45693.96  39080.51  85.53
883.9  45722.91  39049.70  85.41
885.0  45675.63  38920.70  85.21
886.1  45712.78  38838.12  84.96
887.2  45537.58  38625.97  84.82
888.3  45475.07  38481.91  84.62
889.4  45347.40  38326.35  84.52
890.5  45259.13  38169.20  84.33
891.6  45193.70  38059.91  84.22
892.7  45201.31  38005.53  84.08
893.8  45270.56  37990.44  83.92
894.9  45248.28  37895.59  83.75
896.0  45235.90  37805.18  83.57
897.0  45257.72  37770.16  83.46
898.1  45230.13  37707.25  83.37
899.2  45252.30  37649.54  83.20
900.3  45165.90  37513.05  83.06
901.4  45101.16  37389.47  82.90
902.4  45077.20  37324.43  82.80
903.5  45018.01  37199.68  82.63
904.6  45035.56  37123.86  82.43
905.7  45038.93  37071.88  82.31
906.7  44985.82  36991.98  82.23
907.8  45025.57  36925.68  82.01
908.9  44904.57  36790.46  81.93
909.9  44897.74  36693.99  81.73
911.0  44830.08  36565.63  81.56
912.1  44749.25  36402.62  81.35
913.1  44707.00  36269.48  81.13
914.2  44554.62  36073.23  80.96
915.2  44505.45  35973.99  80.83
916.3  44491.35  35868.45  80.62
917.3  44461.10  35729.18  80.36
918.4  44383.35  35541.28  80.08
919.4  44330.69  35384.62  79.82
920.5  44315.70  35242.52  79.53
921.5  44285.78  35152.58  79.38
922.6  44268.10  34953.86  78.96
923.6  44262.16  34829.36  78.69
924.7  44333.00  34675.92  78.22
925.7  44276.22  34513.08  77.95
926.7  44252.98  34394.61  77.72
927.8  44374.33  34252.31  77.19
928.8  44502.63  34163.07  76.77
929.9  44598.23  34035.59  76.32
930.9  44802.27  34001.32  75.89
931.9  45011.35  33936.30  75.39
932.9  45355.12  33990.17  74.94
934.0  45370.16  33844.05  74.60
935.0  45397.97  33690.10  74.21
936.0  45413.73  33466.08  73.69
937.0  45319.95  33210.84  73.28
938.1  45295.44  33019.96  72.90
939.1  45257.91  32779.74  72.43
940.1  45342.90  32636.37  71.98
941.1  45568.46  32581.12  71.50
942.1  45803.34  32522.66  71.00
943.1  45999.43  32437.61  70.52
944.1  46171.28  32405.19  70.18
945.2  46338.18  32233.18  69.56
946.2  46411.22  32066.57  69.09
947.2  46518.25  31890.46  68.55
948.2  46693.82  31763.76  68.03
949.2  46838.19  31584.58  67.43
950.2  46912.95  31378.33  66.89
951.2  46909.80  31187.52  66.48
952.2  47054.57  30982.32  65.84
953.2  47260.85  30846.73  65.27
954.2  47365.65  30647.48  64.70
955.2  47408.68  30453.60  64.24
956.2  47434.65  30250.68  63.77
957.2  47543.77  30078.06  63.26
958.2  47601.59  29967.75  62.96
959.2  47735.55  29870.10  62.57
960.1  47775.14  29813.37  62.40
961.1  47870.63  29732.01  62.11
962.1  47933.44  29651.88  61.86
963.1  48032.50  29613.66  61.65
964.1  48057.21  29610.06  61.61
965.1  48243.99  29668.93  61.50
966.1  48335.33  29620.23  61.28
967.0  48410.39  29650.44  61.25
968.0  48434.88  29656.83  61.23
969.0  48556.60  29653.27  61.07
970.0  48603.65  29687.51  61.08
971.0  48737.12  29696.45  60.93
971.9  48722.90  29710.82  60.98
972.9  48879.95  29767.27  60.90
973.9  48859.53  29860.03  61.11
974.9  49044.08  29850.19  60.86
975.8  49101.73  29877.31  60.85
976.8  49135.91  30067.50  61.19
977.8  49315.41  30115.96  61.07
978.8  49372.50  30236.40  61.24
979.7  49504.50  30399.43  61.41
981.4  50850.20  28403.16  55.86
985.3  50481.20  28689.06  56.83
989.3  50535.22  29107.08  57.60
993.3  50635.09  29566.39  58.39
997.2  50595.02  29905.49  59.11
1001.2  50545.04  30189.68  59.73
1005.2  50473.33  30488.25  60.40
1009.1  50535.74  30898.70  61.14
1013.1  50697.93  31409.04  61.95
1017.1  50843.90  31936.17  62.81
1021.0  50855.49  32380.43  63.67
1025.0  50816.26  32805.20  64.56
1029.0  50641.08  33110.92  65.38
1032.9  50496.42  33417.32  66.18
1036.9  50486.34  33821.59  66.99
1040.9  50614.23  34296.51  67.76
1044.8  50848.91  34819.83  68.48
1048.8  51055.33  35287.81  69.12
1052.7  51200.97  35672.52  69.67
1056.7  51265.76  35952.26  70.13
1060.7  51328.86  36161.96  70.45
1064.6  51364.29  36310.43  70.69
1068.6  51285.22  36327.60  70.83
1072.5  51205.93  36276.28  70.84
1076.5  51155.97  36199.37  70.76
1080.4  51154.95  36096.14  70.56
1084.4  51258.31  36010.99  70.25
1088.3  51367.47  35888.52  69.87
1092.3  51376.13  35631.88  69.35
1096.2  51342.58  35311.64  68.78
1100.2  51360.86  35011.43  68.17
1104.1  51244.60  34610.68  67.54
1108.1  51175.76  34224.96  66.88
1112.0  51059.75  33792.86  66.18
1116.0  50831.30  33247.85  65.41
1119.9  50653.13  32652.50  64.46
1123.9  50703.41  32095.67  63.30
1127.8  50649.60  31255.04  61.71
1131.8  50608.23  30170.12  59.62
1135.7  50617.81  28924.28  57.14
1139.6  50606.06  27559.31  54.46
1143.6  50555.26  26235.33  51.89
1147.5  50517.05  25093.66  49.67
1151.4  50365.69  24117.79  47.89
1155.4  50355.11  23482.16  46.63
1159.3  50376.78  23075.27  45.81
1163.2  50207.59  22708.94  45.23
1167.2  50161.80  22507.32  44.87
1171.1  50174.37  22376.46  44.60
1175.0  50101.08  22222.69  44.36
1179.0  50065.70  22091.76  44.13
1182.9  50165.17  22021.33  43.90
1186.8  50159.61  21912.52  43.69
1190.7  49934.95  21721.44  43.50
1194.7  49665.47  21528.43  43.35
1198.6  49438.62  21388.29  43.26
1202.5  49264.40  21311.18  43.26
1206.4  49122.14  21277.78  43.32
1210.3  49037.26  21280.64  43.40
1214.2  48930.30  21316.07  43.56
1218.2  48765.56  21366.21  43.81
1222.1  48630.48  21432.69  44.07
1226.0  48538.40  21517.42  44.33
1229.9  48450.48  21601.74  44.59
1233.8  48352.03  21669.65  44.82
1237.7  48317.50  21752.18  45.02
1241.6  48229.08  21813.56  45.23
1245.5  48061.09  21821.69  45.40
1249.4  47934.98  21831.55  45.54
1253.3  47803.87  21836.99  45.68
1257.2  47735.46  21851.78  45.78
1261.1  47624.11  21834.04  45.85
1265.0  47490.52  21781.58  45.87
1268.9  47304.07  21676.25  45.82
1272.8  47372.70  21660.00  45.72
1276.7  47590.81  21679.88  45.55
1280.6  47691.16  21612.71  45.32
1284.5  47615.01  21442.51  45.03
1288.4  47591.67  21265.61  44.68
1292.3  47467.75  21000.83  44.24
1296.2  47318.59  20693.35  43.73
1300.1  47148.87  20342.09  43.14
1303.9  46897.39  19913.24  42.46
1307.8  46639.44  19452.92  41.71
1311.7  46386.67  18960.94  40.88
1315.6  46123.85  18439.10  39.98
1319.5  45848.18  17884.57  39.01
1323.3  45606.50  17320.64  37.98
1327.2  45386.16  16759.91  36.93
1331.1  45132.53  16191.39  35.88
1335.0  44824.46  15615.25  34.84
1338.8  44600.56  15096.59  33.85
1342.7  44421.07  14625.43  32.92
1346.5  44042.02  14108.77  32.03
1350.4  43720.62  13639.81  31.20
1354.3  43279.60  13162.19  30.41
1358.1  42799.92  12687.38  29.64
1362.0  42533.76  12270.32  28.85
1365.8  42447.40  11889.79  28.01
1369.7  42569.31  11530.76  27.09
1373.5  42515.11  11038.62  25.96
1377.4  42239.08  10382.27  24.58
1381.2  42024.35  9617.07  22.88
1385.1  42007.68  8829.66  21.02
1389.0  41913.21  8031.05  19.16
1392.8  41686.58  7237.83  17.36
1396.6  41522.45  6530.00  15.73
1400.5  41297.26  5915.34  14.32
1404.3  41119.22  5415.16  13.17
1408.2  41089.83  5031.66  12.25
1412.0  41038.18  4731.34  11.53
1415.8  41063.56  4510.64  10.98
1419.6  41020.11  4335.55  10.57
1423.5  40984.07  4201.32  10.25
1427.3  40938.38  4096.95  10.01
1431.1  40915.35  4026.13  9.84
1434.9  40812.08  3971.67  9.73
1438.8  40755.58  3928.56  9.64
1442.6  40720.04  3899.75  9.58
1446.4  40579.53  3867.79  9.53
1450.2  40476.97  3843.79  9.50
1454.0  40349.16  3826.60  9.48
1457.8  40313.93  3830.76  9.50
1461.6  40291.52  3850.41  9.56
1465.4  40157.17  3869.38  9.64
1469.2  39958.10  3897.08  9.75
1473.0  39808.79  3946.04  9.91
1476.8  39739.71  4023.70  10.13
1480.7  39668.27  4115.12  10.37
1484.4  39532.92  4214.20  10.66
1488.2  39418.92  4341.12  11.01
1492.0  39281.08  4470.68  11.38
1495.8  39157.30  4590.19  11.72
1499.6  39041.55  4693.22  12.02
1503.4  38891.42  4763.62  12.25
1507.2  38758.78  4819.36  12.43
1510.9  38603.27  4872.66  12.62
1514.7  38431.80  4930.83  12.83
1518.5  38296.78  5004.93  13.07
1522.3  38148.01  5084.66  13.33
1526.0  38038.86  5177.88  13.61
1529.8  37977.87  5278.35  13.90
1533.6  37845.65  5359.97  14.16
1537.3  37710.11  5442.27  14.43
1541.1  37580.52  5522.90  14.70
1544.8  37449.60  5608.00  14.97
1548.6  37314.89  5703.89  15.29
1552.4  37219.38  5792.74  15.56
1556.1  37135.69  5872.37  15.81
1559.9  37030.39  5950.68  16.07
1563.6  36900.49  6028.25  16.34
1567.3  36782.10  6121.59  16.64
1571.1  36560.28  6197.66  16.95
1574.8  36404.14  6287.36  17.27
1578.6  36302.38  6374.37  17.56
1582.3  36157.52  6428.80  17.78
1586.0  36009.48  6475.59  17.98
1589.8  35863.84  6514.65  18.16
1593.5  35710.53  6552.66  18.35
1597.2  35575.62  6594.75  18.54
1600.9  35432.24  6634.69  18.73
1604.7  35280.85  6672.33  18.91
1608.4  35142.04  6718.35  19.12
1612.1  34980.47  6751.63  19.30
1615.8  34834.07  6784.12  19.48
1619.5  34752.20  6829.14  19.65
1623.2  34595.03  6861.39  19.83
1626.9  34406.93  6883.32  20.01
1630.6  34230.90  6906.68  20.18
1634.3  34081.71  6929.18  20.33
1638.0  33920.36  6941.27  20.46
1641.7  33748.10  6952.99  20.60
1645.4  33556.70  6953.77  20.72
1649.1  33353.05  6942.99  20.82
1652.8  33189.89  6936.66  20.90
1656.4  33018.59  6917.73  20.95
1660.1  32845.97  6895.46  20.99
1663.8  32642.92  6869.75  21.05
1667.5  32483.35  6844.68  21.07
1671.1  32351.26  6810.22  21.05
1674.8  32144.07  6759.48  21.03
1678.5  32080.00  6730.56  20.98
1682.1  32102.13  6699.94  20.87
1685.8  32123.16  6664.48  20.75
1689.5  32018.65  6606.95  20.63
1693.1  31881.24  6541.99  20.52
1696.8  31732.38  6468.71  20.39
1700.4  31582.94  6379.79  20.20
1704.0  31466.76  6297.34  20.01
1707.7  31189.67  6181.73  19.82
1711.3  30882.00  6049.30  19.59
1715.0  30659.79  5940.84  19.38
1718.6  30484.31  5837.45  19.15
1722.2  30333.58  5739.87  18.92
1725.9  30181.80  5645.62  18.71
1729.5  30037.98  5566.86  18.53
1733.1  29910.73  5508.10  18.42
1736.7  29788.38  5460.13  18.33
1740.3  29614.18  5401.53  18.24
1744.0  29528.30  5339.09  18.08
1747.5  29373.44  5251.43  17.88
1751.2  29138.63  5150.68  17.68
1754.8  28975.37  5057.00  17.45
1758.4  28834.48  4974.61  17.25
1762.0  28639.33  4894.26  17.09
1765.5  28498.38  4832.15  16.96
1769.1  28452.00  4795.20  16.85
1772.7  28378.96  4754.04  16.75
1776.3  28252.73  4705.54  16.66
1779.9  28119.54  4655.53  16.56
1783.5  28061.20  4624.37  16.48
1787.0  27938.82  4582.33  16.40
1790.6  27774.17  4542.40  16.35
1794.2  27666.21  4517.28  16.33
1797.8  27558.84  4495.63  16.31
1801.3  27465.68  4484.16  16.33
1804.9  27315.75  4461.63  16.33
1808.4  27221.13  4448.33  16.34
1812.0  27071.27  4423.64  16.34
1815.5  26907.62  4393.33  16.33
1819.1  26703.43  4358.68  16.32
1822.6  26545.43  4329.96  16.31
1826.2  26400.51  4297.33  16.28
1829.7  26207.46  4252.83  16.23
1833.2  25952.41  4196.26  16.17
1836.8  25712.51  4135.20  16.08
1840.3  25567.16  4086.54  15.98
1843.8  25454.03  4035.97  15.86
1847.3  25371.56  3979.78  15.69
1850.8  25264.51  3911.04  15.48
1854.3  25105.60  3810.90  15.18
1857.8  25027.60  3707.60  14.81
1861.3  25027.70  3575.10  14.28
1864.8  24948.54  3393.86  13.60
1868.3  24715.93  3170.59  12.83
1871.8  24529.92  2923.52  11.92
1875.3  24489.01  2694.36  11.00
1878.8  24485.84  2474.88  10.11
1882.3  24423.29  2261.13  9.26
1885.8  24245.59  2072.00  8.55
1889.3  24030.42  1921.21  7.99
1892.7  23852.68  1809.17  7.58
1896.2  23673.74  1746.11  7.38
1899.7  23427.69  1714.76  7.32
1901.7  21937.94  1028.71  4.69
1904.5  22143.94  1006.86  4.55
1907.2  22059.00  1008.58  4.57
1910.0  21927.95  1015.98  4.63
1912.7  21918.25  1018.18  4.65
1915.5  21816.04  1027.39  4.71
1918.2  21741.95  1025.79  4.72
1921.0  21589.30  1003.99  4.65
1923.7  21620.81  1028.29  4.76
1926.5  21581.93  1017.16  4.71
1929.2  21568.04  1007.96  4.67
1932.0  21551.20  1025.95  4.76
1934.7  21508.34  1028.67  4.78
1937.4  21385.99  1023.55  4.79
1940.2  21322.79  1023.42  4.80
1942.9  21412.44  1041.39  4.86
1945.6  21432.94  1059.01  4.94
1948.3  21347.13  1060.94  4.97
1951.1  21319.83  1061.53  4.98
1953.8  21321.00  1071.00  5.02
1956.5  21174.65  1071.21  5.06
1959.2  21255.91  1082.38  5.09
1961.9  21274.22  1093.66  5.14
1964.6  21161.18  1101.74  5.21
1967.3  21232.43  1115.47  5.25
1970.0  21063.36  1105.07  5.25
1972.8  20962.32  1120.78  5.35
1975.5  21019.32  1144.33  5.44
1978.2  20951.00  1140.75  5.44
1980.9  20833.51  1156.29  5.55
1983.5  20753.87  1171.09  5.64
1986.2  20730.84  1177.58  5.68
1988.9  20710.47  1203.77  5.81
1991.6  20560.54  1195.36  5.81
1994.3  20429.18  1191.92  5.83
1997.0  20463.02  1219.65  5.96
1999.7  20411.81  1231.94  6.04
2002.3  20392.69  1229.30  6.03
2005.0  20300.64  1248.47  6.15
2007.7  20215.73  1271.84  6.29
2010.4  20150.59  1255.25  6.23
2013.0  20054.41  1269.82  6.33
2015.7  19971.23  1291.07  6.46
2018.4  19850.99  1298.25  6.54
2021.0  19776.67  1312.78  6.64
2023.7  19665.12  1306.86  6.65
2026.4  19623.72  1290.97  6.58
2029.0  19549.52  1305.55  6.68
2031.7  19389.93  1322.89  6.82
2034.3  19392.75  1323.83  6.83
2037.0  19277.12  1328.68  6.89
2039.6  19203.81  1337.27  6.96
2042.3  19169.68  1337.70  6.98
2044.9  19085.22  1352.01  7.08
2047.5  19057.17  1360.43  7.14
2050.2  18939.20  1349.60  7.13
2052.8  18894.40  1372.00  7.26
2055.4  18768.37  1374.69  7.32
2058.1  18622.80  1368.27  7.35
2060.7  18569.98  1376.07  7.41
2063.3  18475.60  1376.62  7.45
2065.9  18427.79  1379.08  7.48
2068.6  18352.42  1406.07  7.66
2071.2  18299.61  1417.32  7.75
2073.8  18217.15  1384.24  7.60
2076.4  18153.52  1398.65  7.70
2079.0  18135.74  1419.99  7.83
2081.6  18151.63  1414.17  7.79
2084.2  18112.28  1433.41  7.91
2086.8  17948.60  1431.14  7.97
2089.4  17865.33  1420.22  7.95
2092.1  17782.00  1441.22  8.10
2094.7  17712.75  1452.99  8.20
2097.2  17685.67  1458.22  8.25
2099.8  17677.80  1479.32  8.37
2102.4  17557.58  1474.74  8.40
2105.0  17419.20  1450.65  8.33
2107.6  17352.05  1472.59  8.49
2110.2  17317.12  1487.14  8.59
2112.8  17308.85  1485.12  8.58
2115.3  17299.79  1501.07  8.68
2117.9  17305.54  1510.80  8.73
2120.5  17283.04  1512.89  8.75
2123.1  17169.75  1524.90  8.88
2125.6  17130.75  1530.55  8.93
2128.2  17041.98  1511.14  8.87
2130.8  16938.68  1531.73  9.04
2133.3  16907.73  1540.98  9.11
2135.9  16811.63  1538.49  9.15
2138.4  16669.29  1548.96  9.29
2141.0  16557.51  1535.77  9.28
2143.6  16519.94  1528.37  9.25
2146.1  16331.26  1544.58  9.46
2148.7  16166.35  1534.90  9.49
2151.2  16200.80  1524.36  9.41
2153.8  16223.65  1547.21  9.54
2156.3  16092.71  1547.55  9.62
2158.8  16012.97  1531.80  9.57
2161.4  15977.02  1545.91  9.68
2163.9  15879.72  1544.93  9.73
2166.4  15806.34  1539.44  9.74
2169.0  15776.77  1547.32  9.81
2171.5  15691.03  1537.47  9.80
2174.0  15580.08  1539.07  9.88
2176.5  15568.93  1543.84  9.92
2179.1  15528.15  1530.93  9.86
2181.6  15436.46  1516.78  9.83
2184.1  15393.84  1526.65  9.92
2186.6  15412.36  1543.01  10.01
2189.1  15330.96  1535.45  10.02
2191.6  15265.13  1537.51  10.07
2194.1  15289.63  1546.79  10.12
2196.6  15291.79  1542.09  10.08
2199.2  15355.64  1551.15  10.10
2201.7  15282.97  1555.64  10.18
2204.1  15217.08  1547.85  10.17
2206.6  15263.16  1551.68  10.17
2209.1  15196.78  1548.07  10.19
2211.6  15154.34  1525.20  10.06
2214.1  15142.04  1532.07  10.12
2216.6  15136.36  1539.59  10.17
2219.1  15121.17  1534.53  10.15
2221.6  15017.30  1529.01  10.18
2224.0  14973.30  1530.35  10.22
2226.5  14953.65  1508.05  10.08
2229.0  14990.65  1516.32  10.12
2231.5  14856.57  1497.53  10.08
2233.9  14819.93  1468.78  9.91
2236.4  14830.12  1471.95  9.93
2238.9  14725.00  1445.38  9.82
2241.3  14738.24  1438.06  9.76
2243.8  14703.26  1435.48  9.76
2246.2  14560.76  1404.65  9.65
2248.7  14543.49  1358.83  9.34
2251.2  14547.02  1366.95  9.40
2253.6  14461.44  1355.52  9.37
2256.1  14411.52  1306.88  9.07
2258.5  14448.51  1320.25  9.14
2260.9  14358.24  1312.85  9.14
2263.4  14286.28  1278.16  8.95
2265.8  14286.52  1273.25  8.91
2268.3  14242.68  1263.54  8.87
2270.7  14293.95  1244.90  8.71
2273.1  14208.68  1234.87  8.69
2275.6  14138.88  1227.52  8.68
2278.0  14162.68  1204.24  8.50
2280.4  14119.54  1190.42  8.43
2282.8  13992.20  1175.70  8.40
2285.3  14040.77  1150.95  8.20
2287.7  14128.29  1159.79  8.21
2290.1  13998.75  1153.06  8.24
2292.5  13976.47  1117.75  8.00
2294.9  14012.61  1102.52  7.87
2297.3  13889.96  1083.67  7.80
2299.7  13787.58  1071.32  7.77
2302.1  13749.17  1059.34  7.70
2304.5  13602.40  1029.65  7.57
2306.9  13496.56  1003.52  7.44
2309.3  13451.64  1004.40  7.47
2311.7  13329.30  1004.80  7.54
2314.1  13154.03  971.46  7.39
2316.5  13124.14  967.93  7.38
2318.9  13145.46  973.59  7.41
2321.3  13101.23  979.85  7.48
2323.7  13118.10  987.68  7.53
2326.1  13081.38  971.23  7.42
2328.4  13108.17  970.98  7.41
2330.8  13202.52  985.69  7.47
2333.2  13104.54  970.55  7.41
2335.6  13023.78  943.81  7.25
2337.9  13062.53  932.05  7.14
2340.3  13002.24  922.23  7.09
2342.7  12902.35  925.33  7.17
2345.0  12884.39  922.94  7.16
2347.4  12860.50  896.75  6.97
2349.7  12661.22  855.76  6.76
2352.1  12633.43  860.53  6.81
2354.4  12658.59  876.86  6.93
2356.8  12578.77  848.95  6.75
2359.2  12527.67  836.33  6.68
2361.5  12479.13  830.49  6.66
2363.8  12494.29  816.85  6.54
2366.2  12489.73  828.24  6.63
2368.5  12451.10  832.15  6.68
2370.9  12453.76  824.59  6.62
2373.2  12415.30  822.89  6.63
2375.5  12276.33  787.35  6.41
2377.9  12211.78  776.44  6.36
2380.2  12242.21  806.37  6.59
2382.5  12139.99  781.15  6.43
2384.8  12068.64  762.51  6.32
2387.2  12086.52  784.51  6.49
2389.5  12068.58  752.32  6.23
2391.8  12016.43  739.93  6.16
2394.1  11909.46  754.94  6.34
2396.4  11863.59  724.14  6.10
2398.7  11940.46  714.51  5.98
2401.0  11823.50  708.78  5.99
2403.3  11693.04  693.88  5.93
2405.6  11741.09  699.77  5.96
2407.9  11668.29  729.79  6.25
2410.2  11575.79  706.88  6.11
2412.5  11525.22  662.31  5.75
2414.8  11512.67  674.40  5.86
2417.1  11505.36  676.18  5.88
2419.4  11477.63  639.09  5.57
2421.7  11364.91  632.55  5.57
2424.0  11316.90  637.52  5.63
2426.2  11347.35  615.25  5.42
2428.5  11281.78  632.78  5.61
2430.8  11243.35  648.55  5.77
2433.1  11179.50  599.27  5.36
2435.4  11100.48  615.45  5.54
2437.6  11066.91  600.53  5.43
2439.9  10932.41  552.15  5.05
2442.2  10967.11  580.21  5.29
2444.4  10975.51  549.45  5.01
2446.7  10909.12  554.80  5.09
2448.9  10931.40  594.14  5.44
2451.2  10853.16  568.19  5.24
2453.4  10787.73  550.44  5.10
2455.7  10721.98  545.32  5.09
2457.9  10647.12  537.24  5.05
2460.2  10665.45  526.08  4.93
2462.4  10576.80  553.28  5.23
2464.7  10503.38  529.90  5.05
2466.9  10471.02  502.90  4.80
2469.2  10480.86  522.85  4.99
2471.4  10359.57  490.19  4.73
2473.6  10250.05  475.35  4.64
2475.9  10220.96  485.42  4.75
2478.1  10124.53  485.05  4.79
2480.3  10080.49  478.04  4.74
2482.5  10057.71  471.79  4.69
2484.8  9961.32  451.46  4.53
2487.0  9924.93  441.93  4.45
2489.2  9935.52  502.56  5.06
2491.4  9875.23  473.91  4.80
2493.6  9884.14  441.56  4.47
2495.8  9866.24  485.66  4.92
2498.0  9849.60  451.27  4.58
2500.2  9865.68  443.72  4.50
2502.4  10096.56  449.92  4.46
2504.6  10244.49  428.81  4.19
2506.8  10345.65  415.64  4.02
