/*** Spectra Vista SIG Data ***/
name= GS.sig
comm= Averaged Ref/Tar of files: GD2S10,GD2S11,GD2S12
data=
346.4  509.60  236.76  46.46
347.9  549.06  232.17  42.29
349.5  608.40  242.32  39.83
351.1  655.20  241.28  36.83
352.6  708.40  254.06  35.86
354.2  752.68  266.16  35.36
355.7  818.30  280.63  34.29
357.3  873.81  299.36  34.26
358.8  891.23  298.24  33.46
360.4  967.31  315.40  32.61
361.9  1009.93  318.07  31.49
363.5  1059.53  319.70  30.17
365.1  1102.67  328.26  29.77
366.6  1156.59  330.29  28.56
368.2  1218.77  335.75  27.55
369.7  1306.00  345.00  26.42
371.3  1379.56  356.69  25.86
372.8  1457.48  371.84  25.51
374.4  1528.58  374.91  24.53
375.9  1575.56  388.37  24.65
377.4  1632.76  388.13  23.77
379.0  1683.54  395.69  23.50
380.5  1741.87  406.23  23.32
382.1  1805.51  404.84  22.42
383.6  1862.60  399.74  21.46
385.2  1949.75  422.58  21.67
386.7  2036.04  439.52  21.59
388.3  2135.96  455.63  21.33
389.8  2212.47  473.06  21.38
391.3  2314.34  494.80  21.38
392.9  2392.65  515.90  21.56
394.4  2474.90  532.17  21.50
395.9  2552.82  567.29  22.22
397.5  2664.75  591.09  22.18
399.0  2774.82  597.40  21.53
400.6  2852.64  604.68  21.20
402.1  2910.24  605.44  20.80
403.6  2965.71  609.77  20.56
405.1  3036.77  618.48  20.37
406.7  3133.76  634.67  20.25
408.2  3234.33  653.40  20.20
409.7  3330.88  674.99  20.26
411.3  3437.91  693.09  20.16
412.8  3528.93  725.22  20.55
414.3  3634.54  748.94  20.61
415.8  3740.00  770.83  20.61
417.4  3868.37  793.58  20.51
418.9  3954.39  816.35  20.64
420.4  4037.85  830.83  20.58
421.9  4106.74  838.13  20.41
423.5  4196.00  844.49  20.13
425.0  4263.51  854.05  20.03
426.5  4364.50  865.02  19.82
428.0  4488.82  883.95  19.69
429.5  4615.58  900.60  19.51
431.1  4756.23  928.16  19.51
432.6  4917.76  955.48  19.43
434.1  5064.68  990.74  19.56
435.6  5199.35  1017.17  19.56
437.1  5333.25  1047.15  19.63
438.6  5454.84  1076.17  19.73
440.1  5584.70  1108.22  19.84
441.6  5717.14  1148.10  20.08
443.1  5852.25  1190.03  20.33
444.7  5982.11  1237.80  20.69
446.2  6104.50  1284.05  21.03
447.7  6213.60  1334.77  21.48
449.2  6315.84  1380.24  21.85
450.7  6414.72  1424.80  22.21
452.2  6543.45  1473.75  22.52
453.7  6682.65  1518.56  22.72
455.2  6842.54  1573.62  23.00
456.7  7029.44  1636.80  23.28
458.2  7231.16  1699.74  23.51
459.7  7428.75  1764.00  23.75
461.2  7633.63  1827.96  23.95
462.7  7815.14  1881.29  24.07
464.2  8000.76  1931.26  24.14
465.7  8191.53  1988.90  24.28
467.2  8352.58  2036.65  24.38
468.7  8552.00  2101.33  24.57
470.2  8711.17  2154.65  24.73
471.7  8854.00  2211.92  24.98
473.2  9050.37  2273.78  25.12
474.6  9252.88  2323.76  25.11
476.1  9378.88  2364.51  25.21
477.6  9464.51  2397.29  25.33
479.1  9567.20  2432.11  25.42
480.6  9658.16  2459.79  25.47
482.1  9797.74  2505.69  25.57
483.6  9963.22  2560.22  25.70
485.1  10140.49  2632.00  25.96
486.6  10356.19  2718.38  26.25
488.0  10562.50  2812.33  26.63
489.5  10784.97  2926.92  27.14
491.0  10998.86  3043.86  27.67
492.5  11224.98  3183.84  28.36
494.0  11462.99  3327.23  29.03
495.4  11663.85  3474.90  29.79
496.9  11870.36  3642.83  30.69
498.4  12074.30  3820.54  31.64
499.9  12278.41  4016.66  32.71
501.4  12476.75  4217.67  33.80
502.8  12664.51  4437.16  35.04
504.3  12846.60  4665.60  36.32
505.8  13033.73  4909.27  37.67
507.2  13172.68  5140.36  39.02
508.7  13289.99  5376.17  40.45
510.2  13412.81  5612.99  41.85
511.6  13494.72  5842.88  43.30
513.1  13630.43  6099.32  44.75
514.6  13795.53  6369.29  46.17
516.0  13946.28  6636.25  47.58
517.5  14135.83  6934.42  49.06
519.0  14365.19  7251.57  50.48
520.5  14579.60  7571.88  51.93
521.9  14828.55  7912.00  53.36
523.4  15093.49  8267.42  54.77
524.8  15349.14  8613.42  56.12
526.3  15633.70  8970.44  57.38
527.8  15915.89  9319.82  58.56
529.2  16178.21  9647.05  59.63
530.7  16455.24  9974.56  60.62
532.1  16698.15  10279.24  61.56
533.6  16994.07  10594.88  62.34
535.0  17295.55  10911.29  63.09
536.5  17581.25  11214.25  63.79
538.0  17895.84  11515.95  64.35
539.4  18160.64  11804.77  65.00
540.9  18488.86  12116.84  65.54
542.3  18738.28  12398.58  66.17
543.8  18940.29  12618.79  66.62
545.2  19020.35  12748.53  67.03
546.6  19057.19  12830.08  67.32
548.1  19121.11  12911.86  67.53
549.5  19166.91  12977.05  67.71
551.0  19217.70  13035.35  67.83
552.4  19311.21  13111.06  67.89
553.9  19371.38  13148.74  67.88
555.3  19461.20  13196.43  67.81
556.8  19596.88  13273.01  67.73
558.2  19743.75  13341.94  67.58
559.6  19902.71  13432.62  67.49
561.1  20117.50  13547.63  67.34
562.5  20332.52  13670.93  67.24
564.0  20611.34  13834.41  67.12
565.4  20865.50  13971.66  66.96
566.8  21177.73  14138.37  66.76
568.3  21463.05  14278.30  66.53
569.7  21776.78  14412.36  66.18
571.1  22080.65  14528.73  65.80
572.6  22373.82  14639.40  65.43
574.0  22675.95  14741.10  65.01
575.4  22958.44  14834.25  64.61
576.9  23231.09  14916.25  64.21
578.3  23477.03  14984.02  63.82
579.7  23721.74  15047.76  63.43
581.1  23920.49  15085.10  63.06
582.6  24132.47  15133.02  62.71
584.0  24305.80  15165.77  62.40
585.4  24549.94  15244.57  62.10
586.8  24845.17  15360.32  61.82
588.3  25201.80  15507.18  61.53
589.7  25517.70  15633.54  61.27
591.1  25735.55  15699.46  61.00
592.5  25883.00  15713.82  60.71
594.0  25998.42  15701.32  60.39
595.4  26057.54  15671.29  60.14
596.8  26115.38  15634.19  59.87
598.2  26174.55  15593.60  59.58
599.6  26202.06  15539.49  59.31
601.0  26298.70  15524.57  59.03
602.4  26372.18  15493.22  58.75
603.9  26501.77  15481.89  58.42
605.3  26625.41  15467.40  58.09
606.7  26749.80  15432.00  57.69
608.1  26941.18  15440.11  57.31
609.5  27151.69  15452.46  56.91
610.9  27387.74  15479.56  56.52
612.3  27589.20  15492.23  56.15
613.7  27871.80  15537.91  55.75
615.1  28061.64  15514.20  55.29
616.5  28235.16  15501.63  54.90
617.9  28534.12  15580.57  54.60
619.3  28808.15  15665.34  54.38
620.7  29149.14  15813.00  54.25
622.1  29527.66  15965.54  54.07
623.5  29951.83  16154.14  53.93
624.9  30436.35  16388.05  53.84
626.3  30757.12  16518.68  53.71
627.7  30461.43  16293.78  53.49
629.1  30188.34  16065.07  53.22
630.5  30083.03  15897.54  52.85
631.9  30076.12  15805.58  52.55
633.3  30078.24  15690.34  52.17
634.7  30183.54  15653.11  51.86
636.1  30268.81  15565.94  51.43
637.5  30374.19  15526.42  51.12
638.9  30520.15  15513.94  50.83
640.2  30643.60  15457.17  50.44
641.6  30733.56  15330.12  49.88
643.0  30777.50  15141.74  49.20
644.4  30869.16  14933.63  48.38
645.8  30855.38  14703.77  47.65
647.2  31023.20  14574.65  46.98
648.5  31185.15  14440.18  46.30
649.9  31117.13  14226.42  45.72
651.3  31099.80  14042.85  45.15
652.7  31059.00  13822.70  44.50
654.1  30961.56  13407.82  43.30
655.5  30829.51  12937.97  41.97
656.8  30685.81  12494.62  40.72
658.2  30861.69  12209.31  39.56
659.6  31181.89  11995.82  38.47
660.9  31452.29  11747.54  37.35
662.3  31767.46  11479.19  36.14
663.7  32102.70  11199.30  34.89
665.0  32334.98  10928.96  33.80
666.4  32575.38  10685.69  32.80
667.8  32873.84  10497.63  31.93
669.1  33084.01  10326.57  31.21
670.5  33327.47  10221.35  30.67
671.9  33513.12  10124.52  30.21
673.2  33742.50  10094.12  29.92
674.6  33950.66  10109.23  29.78
676.0  34219.05  10184.96  29.76
677.3  34494.18  10316.48  29.91
678.7  34767.13  10524.42  30.27
680.0  35103.31  10846.65  30.90
681.4  35420.13  11312.95  31.94
682.8  35763.00  11931.62  33.36
684.1  36073.44  12738.96  35.31
685.5  36318.59  13715.07  37.76
686.8  36607.26  14870.70  40.62
688.2  36844.31  16176.16  43.90
689.5  36898.97  17539.17  47.53
690.9  36950.15  18998.41  51.42
692.2  37008.15  20485.85  55.35
693.6  37024.93  22000.47  59.42
694.9  37005.38  23445.56  63.36
696.2  37027.13  24872.78  67.17
697.6  37047.86  26229.50  70.80
698.9  37049.76  27514.08  74.26
700.3  37075.62  28718.52  77.46
701.6  37124.24  29838.30  80.37
703.0  37178.40  30864.50  83.02
704.3  37172.20  31745.73  85.40
705.6  37157.22  32553.72  87.61
707.0  37168.46  33289.70  89.56
708.3  37076.04  33890.59  91.41
709.6  36967.81  34427.21  93.13
711.0  36867.73  34852.44  94.53
712.3  36770.31  35223.78  95.79
713.6  36755.88  35623.00  96.92
714.9  36684.64  35943.02  97.98
716.3  36701.44  36301.11  98.91
717.6  36734.04  36652.77  99.78
718.9  36680.73  36872.85  100.52
720.2  36496.25  36965.81  101.29
721.6  36394.28  37074.01  101.87
722.9  36240.12  37137.46  102.48
724.2  36067.30  37117.67  102.91
725.5  35963.70  37124.19  103.23
726.8  35833.96  37112.36  103.57
728.1  35810.80  37149.87  103.74
729.5  35779.10  37162.52  103.87
730.8  35779.13  37194.41  103.96
732.1  35704.25  37180.30  104.13
733.4  35690.92  37195.53  104.22
734.7  35685.89  37198.53  104.24
736.0  35729.66  37254.04  104.27
737.3  35717.44  37260.80  104.32
738.6  35830.21  37416.78  104.43
739.9  36014.88  37669.87  104.60
741.2  36161.58  37866.92  104.72
742.5  36363.94  38206.06  105.07
743.8  36737.66  38732.92  105.43
745.1  37309.08  39477.44  105.81
746.4  37926.98  40347.58  106.38
747.7  38536.99  41195.52  106.90
749.0  39118.92  41993.15  107.35
750.3  39493.02  42399.97  107.36
751.6  39440.80  42301.16  107.25
752.9  39084.79  41885.50  107.17
754.2  38731.25  41448.09  107.01
755.4  38386.91  41015.07  106.85
756.7  38244.09  40922.54  107.00
758.0  38261.36  41043.73  107.27
759.3  38489.95  41389.14  107.53
760.6  38786.44  41817.16  107.81
761.9  39062.28  42217.19  108.08
763.1  39197.21  42461.01  108.33
764.4  39371.54  42745.90  108.57
765.7  39490.75  42973.67  108.82
767.0  39577.16  43161.47  109.06
768.2  39644.64  43335.04  109.31
769.5  39697.68  43464.91  109.49
770.8  39836.32  43699.57  109.70
772.0  39856.44  43776.03  109.83
773.3  39898.95  43890.05  110.00
774.6  39978.84  44034.50  110.14
775.8  40054.79  44168.53  110.27
777.1  40085.96  44229.41  110.34
778.4  40059.57  44219.71  110.38
779.6  39999.54  44258.35  110.65
780.9  39948.00  44222.67  110.70
782.1  39837.20  44117.39  110.74
783.4  39802.88  44161.17  110.95
784.6  39851.08  44228.09  110.98
785.9  40095.40  44617.84  111.28
787.1  40531.58  45292.43  111.75
788.4  40834.19  45783.05  112.12
789.6  40796.10  45635.02  111.86
790.9  40479.11  45122.36  111.47
792.1  40128.24  44648.75  111.27
793.4  39739.41  44239.57  111.32
794.6  39507.48  43949.01  111.24
795.8  39314.07  43680.24  111.11
797.1  39097.95  43427.43  111.07
798.3  38940.83  43275.65  111.13
799.5  38821.14  43188.37  111.25
800.8  38733.05  43083.40  111.23
802.0  38591.76  42983.69  111.38
803.2  38469.72  42846.59  111.38
804.5  38377.94  42742.15  111.37
805.7  38264.87  42615.52  111.37
806.9  38181.95  42494.28  111.29
808.1  38074.65  42418.92  111.41
809.4  38033.33  42369.66  111.40
810.6  37951.55  42301.35  111.46
811.8  37942.61  42303.25  111.49
813.0  37965.80  42344.46  111.53
814.2  37975.49  42408.60  111.67
815.4  38039.93  42536.34  111.82
816.6  38032.65  42563.28  111.91
817.9  38050.16  42597.45  111.95
819.1  37997.24  42491.54  111.83
820.3  37865.18  42320.73  111.77
821.5  37787.61  42201.28  111.68
822.7  37714.41  42118.50  111.68
823.9  37704.87  42084.01  111.61
825.1  37688.07  42053.28  111.58
826.3  37716.38  42037.81  111.46
827.5  37726.06  42035.57  111.42
828.7  37779.60  42023.44  111.23
829.9  37796.29  41993.84  111.11
831.0  37849.02  42024.34  111.03
832.2  37913.75  42074.00  110.97
833.4  37950.44  42111.33  110.96
834.6  37978.13  42157.81  111.01
835.8  38031.53  42216.30  111.00
837.0  38073.26  42322.69  111.16
838.1  38178.69  42467.87  111.23
839.3  38239.24  42542.70  111.25
840.5  38296.24  42664.22  111.41
841.7  38381.58  42808.82  111.53
842.9  38485.06  42967.46  111.65
844.0  38543.94  43111.27  111.85
845.2  38626.85  43297.27  112.09
846.4  38724.98  43434.88  112.16
847.5  38888.12  43648.62  112.24
848.7  39002.30  43853.95  112.44
849.9  39141.74  44019.66  112.46
851.0  39173.78  44066.62  112.49
852.2  39245.07  44098.43  112.37
853.3  39202.67  44067.60  112.41
854.5  39188.19  44077.98  112.48
855.6  39170.88  44067.24  112.50
856.8  39193.80  44098.34  112.51
857.9  39192.81  44100.85  112.52
859.1  39326.60  44220.47  112.44
860.2  39300.24  44232.13  112.55
861.4  39344.78  44277.48  112.54
862.5  39384.29  44339.35  112.58
863.7  39467.66  44414.50  112.53
864.8  39454.45  44404.27  112.55
865.9  39398.65  44340.07  112.54
867.1  39448.45  44383.21  112.51
868.2  39441.53  44373.17  112.50
869.3  39465.67  44383.01  112.46
870.5  39438.89  44297.82  112.32
871.6  39473.54  44294.94  112.21
872.7  39541.37  44357.26  112.18
873.9  39548.50  44331.60  112.09
875.0  39546.05  44303.41  112.03
876.1  39583.15  44312.48  111.95
877.2  39616.79  44311.06  111.85
878.3  39601.98  44290.71  111.84
879.4  39662.11  44278.26  111.64
880.5  39702.60  44311.80  111.61
881.7  39698.10  44255.47  111.48
882.8  39775.46  44266.74  111.29
883.9  39785.32  44225.38  111.16
885.0  39766.55  44111.11  110.93
886.1  39735.85  44006.79  110.75
887.2  39664.66  43807.43  110.44
888.3  39567.00  43649.60  110.32
889.4  39535.02  43484.92  109.99
890.5  39459.91  43341.07  109.84
891.6  39428.33  43244.84  109.68
892.7  39429.01  43180.70  109.52
893.8  39492.50  43174.95  109.32
894.9  39505.51  43145.34  109.21
896.0  39527.49  43100.60  109.04
897.0  39487.40  43072.69  109.08
898.1  39490.45  43028.99  108.96
899.2  39536.22  42992.02  108.74
900.3  39503.73  42868.48  108.52
901.4  39454.09  42747.43  108.35
902.4  39461.49  42687.60  108.18
903.5  39418.10  42596.77  108.06
904.6  39431.18  42553.21  107.92
905.7  39454.64  42521.85  107.77
906.7  39397.52  42445.39  107.74
907.8  39514.80  42442.90  107.41
908.9  39443.33  42306.76  107.26
909.9  39411.21  42213.05  107.11
911.0  39357.50  42106.87  106.99
912.1  39280.99  41969.23  106.84
913.1  39233.48  41815.45  106.58
914.2  39173.92  41635.94  106.28
915.2  39170.79  41558.40  106.10
916.3  39094.50  41439.50  106.00
917.3  39076.47  41342.80  105.80
918.4  39031.30  41178.23  105.50
919.4  39022.48  41054.90  105.21
920.5  39026.74  40910.24  104.83
921.5  39018.63  40847.36  104.69
922.6  38959.72  40648.43  104.33
923.6  39026.05  40547.93  103.90
924.7  39022.50  40416.42  103.57
925.7  39030.84  40279.74  103.20
926.7  39009.32  40168.48  102.97
927.8  39032.57  40037.38  102.57
928.8  39142.62  39996.79  102.18
929.9  39330.10  39925.50  101.51
930.9  39447.46  39949.84  101.27
931.9  39602.61  39933.21  100.83
932.9  39864.58  40008.04  100.36
934.0  39909.81  39886.37  99.94
935.0  39942.68  39765.94  99.56
936.0  39929.50  39554.40  99.06
937.0  39883.94  39332.80  98.62
938.1  39848.52  39107.93  98.14
939.1  39753.89  38928.69  97.92
940.1  39867.76  38799.44  97.32
941.1  39995.43  38818.49  97.06
942.1  40229.45  38854.73  96.58
943.1  40393.76  38804.23  96.06
944.1  40552.56  38812.51  95.71
945.2  40570.32  38630.34  95.22
946.2  40685.67  38522.10  94.68
947.2  40740.25  38350.59  94.13
948.2  40874.09  38276.96  93.65
949.2  40954.06  38071.86  92.96
950.2  41026.00  37883.48  92.34
951.2  41012.16  37751.56  92.05
952.2  41170.94  37568.12  91.25
953.2  41257.13  37461.67  90.80
954.2  41395.95  37325.70  90.17
955.2  41401.94  37151.65  89.73
956.2  41391.82  36951.02  89.27
957.2  41524.97  36841.90  88.72
958.2  41486.28  36773.41  88.64
959.2  41625.00  36735.45  88.25
960.1  41647.94  36678.10  88.07
961.1  41725.78  36648.59  87.83
962.1  41752.50  36604.69  87.67
963.1  41720.60  36594.46  87.71
964.1  41837.60  36645.25  87.59
965.1  41932.95  36740.88  87.62
966.1  41961.44  36735.12  87.54
967.0  42058.17  36764.65  87.41
968.0  42094.69  36800.81  87.42
969.0  42115.20  36850.80  87.50
970.0  42092.26  36912.58  87.69
971.0  42266.18  36888.92  87.28
971.9  42275.33  37024.37  87.58
972.9  42388.85  37061.56  87.43
973.9  42492.13  37177.40  87.49
974.9  42580.28  37238.67  87.46
975.8  42630.52  37341.91  87.59
976.8  42806.43  37446.88  87.48
977.8  42848.34  37591.85  87.73
978.8  42868.95  37716.05  87.98
979.7  43050.58  37904.56  88.05
980.7  43264.32  38134.64  88.14
981.7  43347.07  38492.08  88.80
982.6  43545.07  38792.08  89.08
983.6  44003.55  39179.77  89.04
984.6  44377.46  39748.52  89.57
985.5  44900.28  40499.64  90.20
986.5  45688.01  40971.66  89.68
987.5  46285.78  41916.89  90.56
988.4  47161.40  42822.27  90.80
989.4  47812.76  43942.80  91.91
990.4  48753.98  45056.07  92.42
991.3  50274.64  46468.54  92.43
992.3  50864.45  47082.22  92.56
993.2  51610.85  48618.92  94.20
994.2  53891.66  49506.11  91.86
995.2  55394.96  50545.56  91.25
996.1  55625.12  50531.24  90.84
997.1  56348.70  50811.54  90.17
998.0  54473.40  51047.40  93.71
999.0  55283.87  51068.33  92.37
1000.0  55127.21  50627.03  91.84
1000.9  55875.58  52071.84  93.19
1001.9  56355.47  50814.52  90.17
1002.8  54776.67  50595.24  92.37
1003.8  57170.04  51060.26  89.31
1004.8  54763.20  51112.32  93.33
961.5  49984.08  38221.22  76.47
965.5  48959.90  37842.99  77.29
969.5  47367.08  36905.51  77.91
973.4  45664.01  35821.98  78.45
977.4  44063.24  35095.05  79.65
981.4  43484.76  34990.60  80.47
985.3  43466.28  35218.83  81.03
989.3  43739.41  35663.23  81.54
993.3  44088.36  36126.72  81.94
997.2  44246.85  36463.56  82.41
1001.2  44240.69  36760.45  83.09
1005.2  44147.66  37062.64  83.95
1009.1  44170.72  37517.91  84.94
1013.1  44298.35  38093.05  85.99
1017.1  44409.64  38663.33  87.06
1021.0  44418.65  39133.12  88.10
1025.0  44431.92  39563.47  89.04
1029.0  44310.95  39859.82  89.95
1032.9  44196.36  40172.21  90.89
1036.9  44214.81  40590.45  91.80
1040.9  44317.48  41100.96  92.74
1044.8  44471.57  41668.27  93.70
1048.8  44586.22  42177.70  94.60
1052.7  44660.98  42599.95  95.39
1056.7  44664.90  42894.55  96.04
1060.7  44652.74  43114.49  96.56
1064.6  44643.90  43272.71  96.93
1068.6  44545.19  43296.70  97.20
1072.5  44448.63  43253.00  97.31
1076.5  44390.31  43189.38  97.29
1080.4  44363.13  43105.71  97.17
1084.4  44428.99  43049.19  96.89
1088.3  44526.89  42949.27  96.46
1092.3  44515.11  42681.05  95.88
1096.2  44485.25  42386.72  95.28
1100.2  44489.30  42142.24  94.72
1104.1  44387.15  41758.80  94.08
1108.1  44344.78  41412.98  93.39
1112.0  44255.25  41005.86  92.66
1116.0  44078.91  40458.86  91.79
1119.9  43920.46  39844.42  90.72
1123.9  43980.05  39291.73  89.34
1127.8  43933.44  38438.40  87.49
1131.8  43891.20  37334.19  85.06
1135.7  43904.71  36072.77  82.16
1139.6  43873.24  34678.80  79.04
1143.6  43814.30  33311.63  76.03
1147.5  43764.96  32141.77  73.44
1151.4  43600.54  31157.56  71.46
1155.4  43567.43  30564.75  70.16
1159.3  43548.37  30198.19  69.34
1163.2  43379.84  29857.04  68.83
1167.2  43333.14  29692.34  68.52
1171.1  43320.14  29594.15  68.31
1175.0  43247.45  29467.13  68.14
1179.0  43203.54  29357.72  67.95
1182.9  43281.26  29324.24  67.75
1186.8  43262.79  29232.18  67.57
1190.7  43059.97  29021.10  67.40
1194.7  42822.73  28808.10  67.27
1198.6  42602.18  28657.86  67.27
1202.5  42456.57  28583.00  67.32
1206.4  42335.53  28550.30  67.44
1210.3  42230.32  28558.44  67.63
1214.2  42126.94  28594.32  67.88
1218.2  41984.08  28627.02  68.19
1222.1  41854.50  28675.90  68.51
1226.0  41760.57  28749.04  68.84
1229.9  41673.90  28818.22  69.15
1233.8  41576.55  28878.26  69.46
1237.7  41528.30  28959.03  69.73
1241.6  41457.25  29012.25  69.98
1245.5  41309.15  29010.66  70.23
1249.4  41175.26  29015.56  70.47
1253.3  41058.30  29018.02  70.68
1257.2  40978.33  29029.75  70.84
1261.1  40873.57  28987.96  70.92
1265.0  40757.89  28913.99  70.94
1268.9  40587.74  28785.63  70.92
1272.8  40626.75  28789.75  70.86
1276.7  40780.33  28847.06  70.74
1280.6  40842.56  28793.36  70.50
1284.5  40748.73  28590.34  70.16
1288.4  40697.88  28388.46  69.75
1292.3  40562.50  28089.42  69.25
1296.2  40411.46  27737.98  68.64
1300.1  40239.63  27330.77  67.92
1303.9  40009.73  26836.14  67.07
1307.8  39785.54  26303.33  66.11
1311.7  39554.21  25735.54  65.06
1315.6  39326.35  25143.29  63.93
1319.5  39086.11  24516.84  62.73
1323.3  38870.69  23883.48  61.44
1327.2  38681.53  23253.05  60.11
1331.1  38474.56  22612.48  58.77
1335.0  38203.08  21950.09  57.46
1338.8  38009.09  21356.49  56.19
1342.7  37876.27  20807.84  54.94
1346.5  37598.34  20181.53  53.68
1350.4  37400.07  19623.89  52.47
1354.3  37094.65  19052.73  51.36
1358.1  36731.71  18489.00  50.34
1362.0  36487.36  18010.96  49.36
1365.8  36370.47  17589.60  48.36
1369.7  36432.94  17191.23  47.19
1373.5  36366.82  16594.14  45.63
1377.4  36166.21  15779.25  43.63
1381.2  35990.96  14862.89  41.30
1385.1  35936.27  13957.89  38.84
1389.0  35813.45  13022.84  36.36
1392.8  35598.92  12073.44  33.92
1396.6  35460.61  11217.45  31.63
1400.5  35253.63  10457.57  29.66
1404.3  35072.57  9844.63  28.07
1408.2  35016.72  9369.83  26.76
1412.0  34945.02  8995.57  25.74
1415.8  34962.39  8733.24  24.98
1419.6  34891.95  8518.04  24.41
1423.5  34842.23  8355.54  23.98
1427.3  34796.45  8229.76  23.65
1431.1  34758.75  8139.83  23.42
1434.9  34669.05  8057.75  23.24
1438.8  34606.94  8005.27  23.13
1442.6  34573.84  7977.22  23.07
1446.4  34441.31  7930.74  23.03
1450.2  34332.12  7905.88  23.03
1454.0  34220.52  7889.56  23.06
1457.8  34188.19  7905.50  23.12
1461.6  34155.00  7935.34  23.23
1465.4  34045.70  7969.50  23.41
1469.2  33870.20  8008.76  23.65
1473.0  33726.92  8078.04  23.95
1476.8  33664.28  8194.73  24.34
1480.7  33601.58  8323.67  24.77
1484.4  33488.64  8453.48  25.24
1488.2  33386.04  8611.56  25.79
1492.0  33257.25  8776.13  26.39
1495.8  33142.20  8929.38  26.94
1499.6  33034.11  9062.83  27.43
1503.4  32933.47  9174.88  27.86
1507.2  32852.74  9271.86  28.22
1510.9  32722.34  9352.48  28.58
1514.7  32573.11  9411.84  28.89
1518.5  32453.90  9478.97  29.21
1522.3  32317.90  9580.24  29.64
1526.0  32200.64  9746.23  30.27
1529.8  32127.61  9929.17  30.91
1533.6  32011.66  10052.34  31.40
1537.3  31894.88  10155.43  31.84
1541.1  31782.08  10268.82  32.31
1544.8  31651.20  10396.00  32.85
1548.6  31528.46  10519.90  33.37
1552.4  31450.00  10632.38  33.81
1556.1  31366.15  10727.71  34.20
1559.9  31270.43  10805.72  34.56
1563.6  31150.17  10885.08  34.94
1567.3  31046.10  10994.80  35.41
1571.1  30855.35  11083.51  35.92
1574.8  30723.08  11193.44  36.43
1578.6  30633.26  11291.26  36.86
1582.3  30519.48  11349.34  37.19
1586.0  30400.45  11400.17  37.50
1589.8  30269.89  11446.14  37.81
1593.5  30123.48  11484.76  38.13
1597.2  29998.09  11523.20  38.41
1600.9  29883.71  11552.83  38.66
1604.7  29753.95  11587.27  38.94
1608.4  29639.51  11636.22  39.26
1612.1  29489.62  11670.57  39.58
1615.8  29365.23  11701.18  39.85
1619.5  29298.37  11749.55  40.10
1623.2  29161.12  11773.08  40.37
1626.9  29003.45  11780.61  40.62
1630.6  28846.40  11788.63  40.87
1634.3  28721.00  11803.87  41.10
1638.0  28599.28  11794.61  41.24
1641.7  28456.49  11769.80  41.36
1645.4  28299.47  11733.00  41.46
1649.1  28138.66  11684.36  41.52
1652.8  28008.70  11646.61  41.58
1656.4  27859.80  11598.02  41.63
1660.1  27720.43  11555.69  41.69
1663.8  27551.22  11504.78  41.76
1667.5  27406.07  11458.05  41.81
1671.1  27282.14  11412.91  41.83
1674.8  27100.13  11334.49  41.82
1678.5  27060.12  11295.50  41.74
1682.1  27085.37  11271.14  41.61
1685.8  27087.74  11238.71  41.49
1689.5  26985.46  11154.15  41.33
1693.1  26859.21  11050.52  41.14
1696.8  26718.75  10946.38  40.97
1700.4  26575.97  10830.16  40.75
1704.0  26457.91  10718.55  40.51
1707.7  26210.69  10548.59  40.25
1711.3  25940.59  10357.63  39.93
1715.0  25755.85  10207.98  39.63
1718.6  25603.66  10070.39  39.33
1722.2  25471.82  9938.62  39.02
1725.9  25346.15  9809.65  38.70
1729.5  25225.17  9697.74  38.44
1733.1  25122.33  9612.79  38.26
1736.7  25028.77  9542.42  38.13
1740.3  24869.68  9445.08  37.98
1744.0  24796.20  9349.19  37.70
1747.5  24670.34  9223.68  37.39
1751.2  24460.97  9070.24  37.08
1754.8  24300.77  8935.01  36.77
1758.4  24168.99  8812.06  36.46
1762.0  24004.67  8682.42  36.17
1765.5  23878.06  8590.85  35.98
1769.1  23824.80  8539.20  35.84
1772.7  23745.17  8479.15  35.71
1776.3  23631.64  8405.83  35.57
1779.9  23517.13  8335.98  35.45
1783.5  23453.36  8287.33  35.34
1787.0  23338.16  8223.38  35.24
1790.6  23194.11  8160.75  35.18
1794.2  23099.94  8116.40  35.14
1797.8  23019.59  8084.61  35.12
1801.3  22943.45  8057.98  35.12
1804.9  22821.75  8014.13  35.12
1808.4  22758.56  7992.77  35.12
1812.0  22651.25  7952.24  35.11
1815.5  22537.46  7900.76  35.06
1819.1  22377.91  7828.76  34.98
1822.6  22230.86  7773.92  34.97
1826.2  22108.08  7724.62  34.94
1829.7  21962.63  7655.10  34.86
1833.2  21769.52  7559.04  34.72
1836.8  21568.82  7474.14  34.65
1840.3  21408.35  7409.87  34.61
1843.8  21283.15  7367.64  34.62
1847.3  21175.36  7337.22  34.65
1850.8  21026.88  7288.51  34.66
1854.3  20829.70  7199.21  34.56
1857.8  20716.80  7051.20  34.04
1861.3  20743.52  6839.24  32.97
1864.8  20771.48  6522.19  31.40
1868.3  20668.83  6111.04  29.57
1871.8  20505.60  5701.12  27.80
1875.3  20412.67  5339.73  26.16
1878.8  20386.82  5006.48  24.56
1882.3  20318.80  4697.19  23.12
1885.8  20165.84  4400.99  21.82
1889.3  19976.70  4139.92  20.72
1892.7  19815.25  3951.84  19.94
1896.2  19650.94  3833.07  19.51
1899.7  19441.16  3789.93  19.49
1903.1  19313.45  3829.06  19.83
1906.6  19304.54  4022.45  20.84
1910.0  19451.18  4350.28  22.37
1913.5  19794.95  4788.65  24.19
1917.0  20308.75  5440.28  26.79
1920.4  20662.58  5947.62  28.78
1923.8  20806.27  6267.17  30.12
1871.2  18887.00  4208.56  22.28
1873.9  18953.16  4109.20  21.68
1876.7  18991.47  3914.12  20.61
1879.5  19143.67  3685.60  19.25
1882.3  18900.39  3443.27  18.22
1885.1  18757.12  3186.53  16.99
1887.8  18909.61  3001.79  15.87
1890.6  18719.80  2879.57  15.38
1893.4  18700.00  2735.33  14.63
1896.2  18690.78  2569.58  13.75
1898.9  18634.09  2513.66  13.49
1901.7  18493.24  2455.18  13.28
1904.5  18663.12  2387.55  12.79
1907.2  18605.75  2346.50  12.61
1910.0  18464.96  2318.75  12.56
1912.7  18451.36  2292.58  12.42
1915.5  18338.72  2280.58  12.44
1918.2  18231.61  2255.54  12.37
1921.0  18078.76  2226.90  12.32
1923.7  18082.37  2243.34  12.41
1926.5  18028.91  2229.73  12.37
1929.2  17989.40  2226.49  12.38
1932.0  17961.44  2244.65  12.50
1934.7  17922.05  2230.35  12.44
1937.4  17800.47  2212.52  12.43
1940.2  17730.06  2247.63  12.68
1942.9  17801.07  2272.59  12.77
1945.6  17808.94  2281.11  12.81
1948.3  17731.12  2294.36  12.94
1951.1  17698.80  2309.67  13.05
1953.8  17700.00  2324.00  13.13
1956.5  17568.67  2323.12  13.22
1959.2  17632.03  2363.10  13.40
1961.9  17647.56  2387.97  13.53
1964.6  17543.58  2402.81  13.70
1967.3  17598.27  2434.64  13.83
1970.0  17419.60  2426.21  13.93
1972.8  17335.24  2450.41  14.14
1975.5  17419.52  2480.84  14.24
1978.2  17336.04  2492.71  14.38
1980.9  17221.82  2520.51  14.64
1983.5  17185.34  2536.07  14.76
1986.2  17183.55  2552.07  14.85
1988.9  17157.36  2587.96  15.08
1991.6  17017.92  2598.31  15.27
1994.3  16893.86  2600.46  15.39
1997.0  16913.63  2644.02  15.63
1999.7  16876.79  2670.65  15.82
2002.3  16857.27  2680.10  15.90
2005.0  16785.35  2715.57  16.18
2007.7  16706.93  2731.93  16.35
2010.4  16656.07  2747.47  16.50
2013.0  16600.58  2786.21  16.78
2015.7  16495.88  2782.94  16.87
2018.4  16401.61  2782.77  16.97
2021.0  16371.00  2823.89  17.25
2023.7  16264.64  2828.55  17.39
2026.4  16195.83  2837.32  17.52
2029.0  16138.97  2852.90  17.68
2031.7  16029.65  2868.31  17.89
2034.3  16012.75  2883.33  18.01
2037.0  15932.90  2885.38  18.11
2039.6  15864.39  2916.49  18.38
2042.3  15822.15  2914.12  18.42
2044.9  15747.27  2928.42  18.60
2047.5  15719.22  2955.54  18.80
2050.2  15638.00  2949.33  18.86
2052.8  15596.00  2962.40  18.99
2055.4  15487.61  2968.83  19.17
2058.1  15363.60  2956.80  19.25
2060.7  15311.01  2972.02  19.41
2063.3  15243.07  2996.60  19.66
2065.9  15200.63  2998.25  19.72
2068.6  15142.00  3006.63  19.86
2071.2  15102.27  3019.71  20.00
2073.8  15013.06  3028.73  20.17
2076.4  14939.89  3054.59  20.45
2079.0  14937.96  3070.39  20.55
2081.6  14955.68  3089.04  20.65
2084.2  14929.44  3107.59  20.82
2086.8  14795.01  3094.20  20.91
2089.4  14708.12  3090.07  21.01
2092.1  14645.50  3095.89  21.14
2094.7  14574.18  3117.86  21.39
2097.2  14543.50  3139.34  21.59
2099.8  14569.24  3155.06  21.66
2102.4  14455.51  3147.57  21.77
2105.0  14315.55  3140.70  21.94
2107.6  14281.54  3161.65  22.14
2110.2  14245.28  3170.35  22.26
2112.8  14225.04  3177.34  22.34
2115.3  14222.61  3205.16  22.54
2117.9  14223.97  3231.49  22.72
2120.5  14225.20  3231.77  22.72
2123.1  14136.53  3237.00  22.90
2125.6  14079.43  3241.67  23.02
2128.2  14012.88  3229.09  23.04
2130.8  13940.55  3244.80  23.28
2133.3  13889.33  3249.16  23.39
2135.9  13802.30  3250.54  23.55
2138.4  13704.95  3247.23  23.69
2141.0  13601.55  3223.35  23.70
2143.6  13585.34  3219.95  23.70
2146.1  13439.94  3209.64  23.88
2148.7  13282.54  3193.14  24.04
2151.2  13302.67  3201.24  24.06
2153.8  13324.47  3215.10  24.13
2156.3  13227.98  3193.54  24.14
2158.8  13160.05  3190.58  24.24
2161.4  13128.93  3201.89  24.39
2163.9  13034.58  3184.20  24.43
2166.4  12973.85  3174.47  24.47
2169.0  12959.07  3177.43  24.52
2171.5  12876.28  3151.81  24.48
2174.0  12786.55  3126.73  24.45
2176.5  12767.30  3139.50  24.59
2179.1  12718.27  3129.12  24.60
2181.6  12644.21  3103.52  24.54
2184.1  12612.60  3111.83  24.67
2186.6  12631.79  3126.83  24.75
2189.1  12551.10  3099.79  24.70
2191.6  12501.53  3095.71  24.76
2194.1  12512.72  3107.97  24.84
2196.6  12513.32  3110.22  24.86
2199.2  12564.98  3127.88  24.89
2201.7  12503.60  3122.02  24.97
2204.1  12450.01  3095.71  24.87
2206.6  12458.20  3092.17  24.82
2209.1  12429.94  3097.40  24.92
2211.6  12413.54  3080.86  24.82
2214.1  12385.83  3069.21  24.78
2216.6  12340.79  3065.25  24.84
2219.1  12355.98  3058.92  24.76
2221.6  12303.15  3049.14  24.78
2224.0  12230.10  3037.84  24.84
2226.5  12198.83  3000.88  24.60
2229.0  12234.63  2994.58  24.48
2231.5  12152.59  2959.31  24.35
2233.9  12137.64  2926.02  24.11
2236.4  12131.98  2932.31  24.17
2238.9  12024.13  2888.17  24.02
2241.3  12068.10  2868.36  23.77
2243.8  12017.57  2856.70  23.77
2246.2  11870.35  2813.17  23.70
2248.7  11882.39  2787.08  23.46
2251.2  11860.53  2780.01  23.44
2253.6  11784.96  2754.56  23.37
2256.1  11773.44  2703.36  22.96
2258.5  11793.92  2694.29  22.84
2260.9  11696.75  2678.11  22.90
2263.4  11668.53  2630.54  22.54
2265.8  11678.48  2602.91  22.29
2268.3  11583.48  2570.69  22.19
2270.7  11653.18  2561.45  21.98
2273.1  11608.55  2557.95  22.04
2275.6  11523.84  2528.00  21.94
2278.0  11553.06  2498.17  21.62
2280.4  11529.61  2487.31  21.57
2282.8  11402.06  2463.67  21.61
2285.3  11435.59  2434.10  21.29
2287.7  11531.47  2422.40  21.01
2290.1  11440.95  2389.13  20.88
2292.5  11408.96  2338.67  20.50
2294.9  11404.51  2328.85  20.42
2297.3  11303.39  2301.81  20.36
2299.7  11233.01  2251.87  20.05
2302.1  11231.11  2211.65  19.69
2304.5  11113.20  2171.68  19.54
2306.9  10995.60  2125.95  19.33
2309.3  10932.15  2121.12  19.40
2311.7  10856.55  2102.50  19.37
2314.1  10708.33  2057.13  19.21
2316.5  10641.94  2093.45  19.67
2318.9  10674.03  2106.17  19.73
2321.3  10672.73  2094.40  19.62
2323.7  10642.23  2100.49  19.74
2326.1  10606.96  2083.51  19.64
2328.4  10691.58  2064.00  19.30
2330.8  10736.25  2073.63  19.31
2333.2  10617.06  2055.05  19.36
2335.6  10582.60  2014.94  19.04
2337.9  10642.00  1996.24  18.76
2340.3  10592.40  1981.61  18.71
2342.7  10507.23  1966.32  18.71
2345.0  10502.01  1952.05  18.59
2347.4  10493.25  1932.33  18.42
2349.7  10277.63  1888.08  18.37
2352.1  10236.25  1872.57  18.29
2354.4  10290.21  1856.88  18.05
2356.8  10243.45  1827.39  17.84
2359.2  10187.67  1841.67  18.08
2361.5  10122.93  1835.51  18.13
2363.8  10144.75  1804.98  17.79
2366.2  10159.49  1790.34  17.62
2368.5  10097.05  1771.10  17.54
2370.9  10118.68  1749.07  17.29
2373.2  10072.53  1746.21  17.34
2375.5  9932.38  1721.01  17.33
2377.9  9918.93  1692.66  17.06
2380.2  9923.89  1716.60  17.30
2382.5  9856.28  1681.77  17.06
2384.8  9822.88  1647.20  16.77
2387.2  9807.99  1670.61  17.03
2389.5  9759.69  1651.01  16.92
2391.8  9772.85  1616.13  16.54
2394.1  9716.63  1618.64  16.66
2396.4  9652.48  1635.36  16.94
2398.7  9714.10  1606.03  16.53
2401.0  9598.25  1579.11  16.45
2403.3  9511.80  1558.74  16.39
2405.6  9521.83  1537.82  16.15
2407.9  9458.88  1551.43  16.40
2410.2  9400.00  1514.03  16.11
2412.5  9350.27  1475.38  15.78
2414.8  9330.30  1496.00  16.03
2417.1  9280.68  1496.88  16.13
2419.4  9294.64  1476.17  15.88
2421.7  9214.94  1464.86  15.90
2424.0  9156.02  1447.63  15.81
2426.2  9223.40  1424.88  15.45
2428.5  9129.27  1397.15  15.30
2430.8  9112.40  1393.38  15.29
2433.1  9071.93  1382.92  15.24
2435.4  8991.17  1378.24  15.33
2437.6  8963.19  1355.86  15.13
2439.9  8866.09  1321.40  14.90
2442.2  8873.80  1327.28  14.96
2444.4  8827.50  1315.22  14.90
2446.7  8812.56  1300.37  14.76
2448.9  8870.66  1312.64  14.80
2451.2  8802.92  1293.32  14.69
2453.4  8732.64  1269.62  14.54
2455.7  8702.87  1273.09  14.63
2457.9  8608.05  1243.39  14.44
2460.2  8594.01  1222.73  14.23
2462.4  8611.20  1214.72  14.11
2464.7  8503.63  1217.51  14.32
2466.9  8416.62  1168.44  13.88
2469.2  8471.54  1162.38  13.72
2471.4  8370.38  1201.40  14.35
2473.6  8261.63  1144.85  13.86
2475.9  8256.69  1126.63  13.65
2478.1  8211.66  1111.29  13.53
2480.3  8173.00  1069.78  13.09
2482.5  8177.69  1112.76  13.61
2484.8  8119.06  1094.68  13.48
2487.0  8110.30  1056.68  13.03
2489.2  8058.48  1130.75  14.03
2491.4  7946.29  1078.46  13.57
2493.6  7987.26  1026.82  12.86
2495.8  7981.68  1103.29  13.82
2498.0  7985.07  1086.29  13.60
2500.2  7961.63  1064.36  13.37
2502.4  8125.20  1101.12  13.55
2504.6  8272.59  1126.80  13.62
2506.8  8348.61  1133.28  13.57
