/*** Spectra Vista SIG Data ***/
name= GS.sig
comm= Resampled spectral data SIG file reprocesed for matching/overlap;Averaged Ref/Tar of files: GD2S10,GD2S11,GD2S12
data=
346.0  509.60  236.76  46.46
356.0  828.71  284.14  34.29
366.0  1135.02  329.48  29.03
376.0  1579.37  388.35  24.59
386.0  1995.77  431.61  21.63
396.0  2559.82  568.78  22.22
406.0  3091.33  627.59  20.30
416.0  3756.05  773.67  20.60
426.0  4330.84  861.36  19.89
436.0  5235.06  1025.16  19.58
446.0  6088.18  1277.88  20.99
456.0  6942.22  1607.32  23.15
466.0  8223.74  1998.45  24.30
476.0  9370.48  2361.79  25.20
486.0  10269.91  2683.83  26.13
496.0  11746.45  3542.07  30.15
506.0  13053.58  4942.28  37.86
516.0  13946.28  6636.25  47.58
526.0  15576.79  8899.04  57.13
536.0  17486.02  11113.26  63.56
546.0  19041.40  12795.13  67.20
556.0  19524.52  13232.17  67.77
566.0  20999.31  14043.11  66.87
576.0  23067.50  14867.05  64.45
586.0  24676.47  15294.18  61.98
596.0  26082.33  15655.39  60.02
606.0  26687.61  15449.70  57.89
616.0  28173.19  15506.12  55.04
626.0  30688.38  16490.69  53.74
636.0  30262.72  15572.17  51.46
646.0  30879.36  14685.32  47.56
656.0  30774.24  12767.45  41.49
666.0  32506.69  10755.20  33.09
676.0  34219.05  10184.96  29.76
686.0  36429.62  14159.55  38.87
696.0  37023.78  24653.19  66.59
706.0  37160.43  32764.01  88.17
716.0  36697.84  36224.38  98.71
726.0  35913.80  37119.64  103.36
736.0  35729.66  37254.04  104.27
746.0  37736.85  40079.84  106.21
756.0  38321.00  40972.37  106.92
766.0  39510.69  43017.01  108.87
776.0  40059.59  44177.90  110.28
786.0  40131.74  44674.04  111.32
796.0  39280.82  43641.34  111.10
806.0  38244.14  42585.21  111.35
816.0  38036.29  42549.81  111.87
826.0  37709.30  42041.68  111.49
836.0  38038.49  42234.03  111.03
846.0  38692.27  43389.01  112.14
856.0  39178.52  44077.61  112.50
866.0  39402.80  44343.66  112.54
876.0  39579.78  44311.66  111.96
886.0  39738.64  44016.27  110.76
896.0  39527.49  43100.60  109.04
906.0  39437.50  42498.91  107.76
916.0  39115.31  41471.93  106.02
926.0  39024.38  40246.36  103.13
936.0  39929.50  39554.40  99.06
946.0  40662.60  38543.75  94.79
956.0  41393.84  36991.15  89.36
966.0  41958.59  36735.70  87.55
976.0  42665.70  37362.91  87.57
986.0  43514.08  35296.60  81.12
996.0  44198.08  36359.92  82.27
1006.0  44152.39  37156.03  84.15
1016.0  44379.04  38506.51  86.77
1026.0  44401.68  39637.56  89.27
1036.0  44210.66  40496.34  91.60
1046.0  44505.96  41821.09  93.97
1056.0  44664.21  42843.00  95.92
1066.0  44609.35  43281.11  97.02
1076.0  44397.60  43197.33  97.30
1086.0  44469.15  43008.20  96.71
1096.0  44486.78  42401.81  95.31
1106.0  44367.02  41594.53  93.75
1116.0  44078.91  40458.86  91.79
1126.0  43954.95  38832.25  88.35
1136.0  43902.29  35965.52  81.92
1146.0  43783.94  32591.71  74.44
1156.0  43564.50  30508.36  70.03
1166.0  43347.15  29741.75  68.61
1176.0  43236.47  29439.78  68.09
1186.0  43266.58  29251.07  67.61
1196.0  42749.21  28758.02  67.27
1206.0  42347.95  28553.65  67.43
1216.0  42062.65  28609.04  68.02
1226.0  41760.57  28749.04  68.84
1236.0  41549.33  28923.82  69.61
1246.0  41291.98  29011.29  70.26
1256.0  41002.94  29026.14  70.79
1266.0  40714.26  28881.08  70.94
1276.0  40752.77  28836.77  70.76
1286.0  40729.17  28512.69  70.01
1296.0  40419.20  27756.00  68.67
1306.0  39889.01  26549.25  66.56
1316.0  39301.71  25079.04  63.81
1326.0  38739.73  23447.03  60.52
1336.0  38152.03  21793.88  57.12
1346.0  37634.91  20263.94  53.84
1356.0  36932.28  18800.54  50.91
1366.0  36373.67  17569.18  48.30
1376.0  36238.22  16071.78  44.35
1386.0  35907.93  13742.10  38.27
1396.0  35482.45  11352.60  31.99
1406.0  35048.23  9637.67  27.50
1416.0  34958.68  8721.92  24.95
1426.0  34812.11  8272.79  23.76
1436.0  34651.53  8042.95  23.21
1446.0  34455.26  7935.63  23.03
1456.0  34203.50  7897.95  23.09
1466.0  34017.99  7975.70  23.45
1476.0  33677.47  8170.16  24.26
1486.0  33445.44  8520.04  25.47
1496.0  33136.51  8936.40  26.97
1506.0  32878.23  9241.24  28.11
1516.0  32532.33  9434.81  29.00
1526.0  32200.64  9746.23  30.27
1536.0  31935.91  10119.21  31.69
1546.0  31612.44  10435.13  33.01
1556.0  31368.42  10725.13  34.19
1566.0  31082.67  10956.25  35.25
1576.0  30694.72  11224.33  36.57
1586.0  30400.45  11400.17  37.50
1596.0  30038.76  11510.73  38.32
1606.0  29713.74  11604.47  39.05
1616.0  29361.62  11703.79  39.86
1626.0  29041.80  11778.78  40.56
1636.0  28665.08  11799.62  41.16
1646.0  28273.39  11725.11  41.47
1656.0  27876.35  11603.42  41.62
1666.0  27464.92  11476.99  41.79
1676.0  27087.15  11321.84  41.80
1686.0  27082.21  11234.14  41.48
1696.0  26749.12  10968.90  41.01
1706.0  26324.28  10626.68  40.37
1716.0  25713.57  10169.76  39.55
1726.0  25342.79  9806.54  38.70
1736.0  25046.96  9556.10  38.15
1746.0  24724.28  9277.47  37.52
1756.0  24256.84  8894.03  36.67
1766.0  23870.66  8583.68  35.96
1776.0  23641.10  8411.94  35.58
1786.0  23371.07  8241.65  35.26
1796.0  23059.77  8100.51  35.13
1806.0  22801.89  8007.42  35.12
1816.0  22515.30  7890.76  35.05
1826.0  22114.90  7727.36  34.94
1836.0  21613.42  7493.01  34.67
1846.0  21215.40  7348.52  34.64
1856.0  20774.86  7127.32  34.31
1866.0  20736.29  6381.23  30.77
1876.0  20407.50  5273.08  25.84
1886.0  20155.03  4386.08  21.76
1896.0  19660.33  3839.86  19.53
1906.0  18631.25  2364.74  12.69
1916.0  18318.88  2275.94  12.42
1926.0  18038.46  2232.16  12.37
1936.0  17863.51  2221.77  12.44
1946.0  17797.41  2283.07  12.83
1956.0  17592.99  2323.28  13.21
1966.0  17571.94  2419.31  13.77
1976.0  17404.06  2483.04  14.27
1986.0  17183.68  2550.89  14.84
1996.0  16906.31  2627.89  15.54
2006.0  16756.31  2721.63  16.24
2016.0  16485.40  2782.92  16.88
2026.0  16206.02  2836.02  17.50
2036.0  15962.47  2884.62  18.07
2046.0  15735.40  2939.89  18.68
2056.0  15460.05  2966.16  19.19
2066.0  15198.46  2998.56  19.73
2076.0  14951.14  3050.61  20.40
2086.0  14836.37  3098.32  20.88
2096.0  14558.23  3129.03  21.49
2106.0  14302.47  3148.76  22.02
2116.0  14222.98  3212.25  22.58
2126.0  14069.19  3239.73  23.03
2136.0  13798.40  3250.41  23.56
2146.0  13445.76  3210.05  23.87
2156.0  13239.56  3196.13  24.14
2166.0  12983.56  3176.03  24.46
2176.0  12771.15  3136.95  24.56
2186.0  12627.18  3123.23  24.73
2196.0  12513.18  3109.68  24.85
2206.0  12456.23  3093.02  24.83
2216.0  12351.60  3066.20  24.82
2226.0  12205.08  3008.27  24.65
2236.0  12132.89  2931.30  24.16
2246.0  11882.62  2816.80  23.71
2256.0  11773.90  2705.41  22.98
2266.0  11670.88  2600.33  22.28
2276.0  11528.71  2523.03  21.88
2286.0  11463.55  2430.69  21.20
2296.0  11358.16  2316.46  20.39
2306.0  11039.70  2143.10  19.41
2316.0  10655.77  2085.88  19.58
2326.0  10608.43  2084.22  19.65
2336.0  10592.93  2011.69  18.99
2346.0  10498.36  1943.83  18.52
2356.0  10259.04  1837.22  17.91
2366.0  10158.26  1791.56  17.64
2376.0  9929.58  1715.10  17.27
2386.0  9815.44  1658.91  16.90
2396.0  9663.63  1632.45  16.89
2406.0  9510.88  1540.19  16.19
2416.0  9304.41  1496.46  16.08
2426.0  9217.28  1426.95  15.48
2436.0  8983.54  1372.14  15.27
2446.0  8817.11  1304.89  14.80
2456.0  8689.94  1269.04  14.60
2466.0  8452.21  1188.51  14.06
2476.0  8254.64  1125.93  13.64
2486.0  8114.28  1073.95  13.24
2496.0  7981.99  1101.74  13.80
2506.0  8320.96  1130.92  13.59
