/*** Spectra Vista SIG Data ***/
name= RT2.sig
comm= Averaged Ref/Tar of files: RD5T4,RD5T5,RD5T6
data=
346.4  366.28  93.64  25.57
347.9  400.03  94.75  23.69
349.5  432.12  96.93  22.43
351.1  468.00  99.63  21.29
352.6  496.51  100.78  20.30
354.2  520.33  107.77  20.71
355.7  575.84  112.70  19.57
357.3  598.14  121.60  20.33
358.8  616.87  121.63  19.72
360.4  668.33  119.83  17.93
361.9  686.05  121.89  17.77
363.5  715.01  124.19  17.37
365.1  743.78  125.06  16.81
366.6  778.54  129.35  16.61
368.2  824.27  130.50  15.83
369.7  873.39  130.82  14.98
371.3  928.49  134.11  14.44
372.8  977.74  142.10  14.53
374.4  1016.27  144.18  14.19
375.9  1052.58  146.08  13.88
377.4  1084.71  148.10  13.65
379.0  1129.79  148.73  13.16
380.5  1157.14  148.13  12.80
382.1  1186.43  146.17  12.32
383.6  1234.64  150.26  12.17
385.2  1293.88  151.43  11.70
386.7  1345.63  154.15  11.46
388.3  1410.38  159.61  11.32
389.8  1464.46  163.97  11.20
391.3  1527.57  170.81  11.18
392.9  1567.60  176.96  11.29
394.4  1609.87  184.58  11.47
395.9  1662.63  185.89  11.18
397.5  1749.05  194.45  11.12
399.0  1827.74  191.58  10.48
400.6  1876.29  190.18  10.14
402.1  1904.04  191.95  10.08
403.6  1943.17  190.04  9.78
405.1  1994.81  191.18  9.58
406.7  2061.92  191.60  9.29
408.2  2135.06  199.29  9.33
409.7  2198.56  205.33  9.34
411.3  2272.05  209.76  9.23
412.8  2335.64  217.41  9.31
414.3  2399.77  222.40  9.27
415.8  2475.00  224.83  9.08
417.4  2547.71  234.45  9.20
418.9  2612.23  237.14  9.08
420.4  2658.25  241.61  9.09
421.9  2705.56  239.26  8.84
423.5  2743.63  241.91  8.82
425.0  2788.02  244.83  8.78
426.5  2844.45  245.82  8.64
428.0  2917.63  245.61  8.42
429.5  3009.90  250.83  8.33
431.1  3112.45  254.90  8.19
432.6  3227.88  262.23  8.12
434.1  3329.29  275.40  8.27
435.6  3423.98  278.38  8.13
437.1  3517.80  288.86  8.21
438.6  3607.74  292.79  8.12
440.1  3694.39  298.17  8.07
441.6  3790.73  306.92  8.10
443.1  3873.83  315.50  8.14
444.7  3959.99  313.87  7.93
446.2  4024.76  325.57  8.09
447.7  4101.41  326.07  7.95
449.2  4174.20  327.60  7.85
450.7  4238.00  328.92  7.76
452.2  4313.18  330.12  7.65
453.7  4393.64  333.39  7.59
455.2  4491.99  340.57  7.58
456.7  4618.24  346.96  7.51
458.2  4761.06  356.03  7.48
459.7  4899.13  367.03  7.49
461.2  5044.37  377.83  7.49
462.7  5165.05  387.95  7.51
464.2  5287.79  394.55  7.46
465.7  5408.14  407.04  7.53
467.2  5518.98  414.77  7.52
468.7  5631.00  429.20  7.62
470.2  5705.20  445.43  7.81
471.7  5821.13  455.21  7.82
473.2  6011.22  445.81  7.42
474.6  6153.75  445.70  7.24
476.1  6204.18  451.84  7.28
477.6  6220.94  455.18  7.32
479.1  6250.52  461.40  7.38
480.6  6293.37  460.82  7.32
482.1  6374.96  461.78  7.24
483.6  6474.12  463.73  7.16
485.1  6599.29  471.49  7.14
486.6  6739.10  480.74  7.13
488.0  6898.13  489.67  7.10
489.5  7058.36  501.40  7.10
491.0  7224.81  511.38  7.08
492.5  7392.87  525.75  7.11
494.0  7557.79  536.28  7.10
495.4  7702.20  549.78  7.14
496.9  7844.83  557.45  7.11
498.4  7990.29  570.49  7.14
499.9  8131.50  583.49  7.18
501.4  8263.45  595.39  7.21
502.8  8392.79  606.31  7.22
504.3  8499.60  614.40  7.23
505.8  8611.18  624.15  7.25
507.2  8674.01  631.11  7.28
508.7  8728.20  639.07  7.32
510.2  8764.92  646.95  7.38
511.6  8789.76  652.59  7.42
513.1  8840.43  654.00  7.40
514.6  8904.34  658.52  7.40
516.0  8958.85  664.28  7.41
517.5  9056.55  675.85  7.46
519.0  9171.31  689.04  7.51
520.5  9287.32  702.69  7.57
521.9  9437.16  719.07  7.62
523.4  9612.27  739.12  7.69
524.8  9785.79  757.63  7.74
526.3  9984.58  782.85  7.84
527.8  10184.06  807.49  7.93
529.2  10366.76  831.62  8.02
530.7  10567.61  852.27  8.06
532.1  10746.40  875.70  8.15
533.6  10959.02  897.79  8.19
535.0  11168.56  927.12  8.30
536.5  11376.00  949.07  8.34
538.0  11592.92  974.83  8.41
539.4  11785.91  1002.34  8.50
540.9  12037.93  1027.38  8.53
542.3  12246.63  1042.33  8.51
543.8  12400.56  1058.38  8.53
545.2  12445.48  1064.06  8.55
546.6  12442.01  1075.29  8.64
548.1  12455.19  1081.70  8.68
549.5  12460.55  1087.55  8.73
551.0  12456.77  1092.61  8.77
552.4  12484.13  1097.14  8.79
553.9  12491.52  1105.50  8.85
555.3  12509.64  1114.07  8.91
556.8  12569.08  1127.89  8.97
558.2  12630.94  1139.29  9.02
559.6  12713.51  1154.77  9.08
561.1  12831.00  1177.91  9.18
562.5  12959.42  1199.74  9.26
564.0  13129.35  1229.64  9.37
565.4  13288.41  1257.90  9.47
566.8  13487.87  1293.79  9.59
568.3  13678.39  1330.65  9.73
569.7  13879.32  1370.45  9.87
571.1  14074.77  1408.89  10.01
572.6  14269.77  1452.38  10.18
574.0  14463.08  1496.44  10.35
575.4  14650.03  1539.12  10.51
576.9  14818.07  1586.74  10.71
578.3  14977.46  1634.61  10.91
579.7  15131.24  1686.20  11.14
581.1  15254.19  1738.74  11.40
582.6  15387.18  1790.18  11.63
584.0  15508.86  1844.12  11.89
585.4  15681.05  1900.84  12.12
586.8  15909.04  1959.92  12.32
588.3  16162.38  2023.63  12.52
589.7  16371.81  2086.34  12.74
591.1  16519.39  2146.74  13.00
592.5  16589.78  2198.10  13.25
594.0  16627.80  2257.29  13.58
595.4  16637.76  2315.88  13.92
596.8  16651.64  2372.94  14.25
598.2  16659.51  2433.81  14.61
599.6  16659.36  2489.80  14.95
601.0  16705.59  2554.11  15.29
602.4  16752.94  2628.20  15.69
603.9  16822.23  2707.51  16.09
605.3  16905.11  2790.21  16.51
606.7  16973.10  2877.60  16.95
608.1  17114.04  2979.95  17.41
609.5  17255.15  3091.75  17.92
610.9  17434.91  3209.76  18.41
612.3  17598.49  3331.07  18.93
613.7  17818.60  3461.50  19.43
615.1  17967.42  3581.39  19.93
616.5  18122.06  3703.48  20.44
617.9  18356.64  3849.74  20.97
619.3  18578.68  4000.19  21.53
620.7  18848.67  4170.36  22.13
622.1  19119.58  4247.36  22.21
623.5  19414.06  4277.14  22.03
624.9  19741.18  4304.90  21.81
626.3  19952.52  4327.88  21.69
627.7  19741.37  4321.30  21.89
629.1  19544.02  4370.91  22.36
630.5  19457.12  4476.38  23.01
631.9  19461.81  4622.65  23.75
633.3  19457.49  4780.94  24.57
634.7  19533.17  4949.46  25.34
636.1  19566.68  5073.13  25.93
637.5  19597.55  5216.95  26.62
638.9  19677.50  5372.79  27.30
640.2  19731.43  5525.85  28.01
641.6  19754.28  5683.39  28.77
643.0  19715.36  5821.37  29.53
644.4  19707.26  5957.01  30.23
645.8  19650.11  6069.49  30.89
647.2  19716.78  6208.76  31.49
648.5  19765.84  6347.58  32.11
649.9  19671.60  6452.42  32.80
651.3  19608.23  6577.98  33.55
652.7  19503.68  6672.67  34.21
654.1  19390.95  6552.62  33.79
655.5  19238.75  6380.77  33.17
656.8  19118.09  6237.32  32.63
658.2  19225.93  6195.49  32.22
659.6  19449.31  6227.26  32.02
660.9  19643.18  6259.68  31.87
662.3  19825.21  6289.68  31.73
663.7  20008.80  6307.98  31.53
665.0  20165.89  6331.64  31.40
666.4  20328.89  6361.44  31.29
667.8  20535.62  6421.05  31.27
669.1  20711.76  6472.70  31.25
670.5  20914.18  6546.76  31.30
671.9  21055.86  6619.94  31.44
673.2  21237.33  6737.73  31.73
674.6  21400.77  6867.81  32.09
676.0  21596.49  7041.66  32.61
677.3  21793.24  7242.00  33.23
678.7  21992.69  7478.73  34.01
680.0  22269.19  7782.16  34.95
681.4  22542.00  8135.56  36.09
682.8  22829.63  8540.65  37.41
684.1  23112.18  8994.80  38.92
685.5  23364.31  9461.85  40.50
686.8  23617.23  9929.71  42.04
688.2  23841.32  10376.53  43.52
689.5  23927.84  10747.77  44.92
690.9  23997.39  11096.32  46.24
692.2  24047.78  11416.01  47.47
693.6  24110.83  11726.14  48.63
694.9  24095.99  11960.27  49.64
696.2  24121.97  12181.26  50.50
697.6  24149.95  12367.75  51.21
698.9  24174.48  12554.96  51.93
700.3  24215.57  12744.26  52.63
701.6  24264.40  12924.44  53.27
703.0  24323.35  13086.49  53.80
704.3  24329.34  13188.91  54.21
705.6  24327.41  13309.79  54.71
707.0  24334.75  13410.92  55.11
708.3  24282.08  13464.44  55.45
709.6  24223.21  13515.87  55.80
711.0  24124.28  13525.39  56.07
712.3  24015.02  13544.10  56.40
713.6  23977.17  13583.78  56.65
714.9  23907.38  13616.05  56.95
716.3  23880.58  13658.85  57.20
717.6  23876.83  13716.77  57.45
718.9  23805.06  13710.72  57.60
720.2  23675.16  13654.56  57.67
721.6  23576.15  13629.82  57.81
722.9  23446.45  13611.91  58.06
724.2  23274.82  13574.18  58.32
725.5  23133.68  13572.18  58.67
726.8  23009.81  13536.33  58.83
728.1  22933.91  13536.17  59.02
729.5  22856.87  13544.44  59.26
730.8  22796.53  13559.75  59.48
732.1  22719.29  13581.61  59.78
733.4  22660.56  13610.14  60.06
734.7  22602.67  13618.52  60.25
736.0  22569.89  13662.39  60.53
737.3  22520.76  13702.11  60.84
738.6  22554.56  13793.84  61.16
739.9  22633.16  13946.25  61.62
741.2  22698.59  14052.40  61.91
742.5  22841.25  14232.81  62.31
743.8  23091.34  14494.67  62.77
745.1  23491.07  14844.51  63.19
746.4  23957.57  15194.79  63.42
747.7  24466.55  15504.42  63.37
749.0  24948.63  15771.78  63.22
750.3  25229.30  15851.65  62.83
751.6  25175.69  15767.94  62.63
752.9  24925.64  15628.73  62.70
754.2  24630.59  15518.97  63.01
755.4  24314.44  15420.23  63.42
756.7  24210.69  15471.21  63.90
758.0  24235.24  15602.80  64.38
759.3  24394.18  15828.57  64.89
760.6  24621.52  16094.64  65.37
761.9  24823.09  16330.72  65.79
763.1  24955.30  16486.99  66.07
764.4  25125.21  16668.16  66.34
765.7  25257.38  16813.55  66.57
767.0  25349.99  16945.13  66.84
768.2  25431.84  17066.56  67.11
769.5  25509.93  17179.09  67.34
770.8  25646.87  17331.71  67.58
772.0  25674.66  17414.69  67.83
773.3  25762.96  17535.34  68.06
774.6  25839.71  17652.97  68.32
775.8  25921.43  17742.66  68.45
777.1  25948.26  17812.69  68.65
778.4  25918.05  17850.57  68.87
779.6  25945.86  17920.54  69.07
780.9  25904.00  17971.20  69.38
782.1  25811.51  17991.22  69.70
783.4  25819.04  18062.44  69.96
784.6  25849.06  18159.19  70.25
785.9  26028.56  18433.77  70.82
787.1  26416.14  18792.34  71.14
788.4  26716.91  18936.38  70.88
789.6  26732.54  18749.75  70.14
790.9  26499.75  18459.84  69.66
792.1  26215.36  18312.36  69.85
793.4  25939.41  18190.73  70.13
794.6  25766.06  18104.30  70.26
795.8  25608.38  18048.69  70.48
797.1  25427.85  18003.54  70.80
798.3  25301.10  17993.31  71.12
799.5  25235.55  18009.50  71.37
800.8  25155.70  18008.26  71.59
802.0  25074.70  17990.50  71.75
803.2  24986.56  17959.16  71.88
804.5  24925.76  17947.69  72.00
805.7  24855.66  17929.00  72.13
806.9  24776.64  17905.43  72.27
808.1  24708.89  17913.43  72.50
809.4  24677.19  17942.79  72.71
810.6  24617.78  17960.37  72.96
811.8  24606.91  18006.20  73.18
813.0  24601.75  18075.22  73.47
814.2  24620.30  18146.74  73.71
815.4  24684.78  18219.33  73.81
816.6  24715.54  18245.38  73.82
817.9  24752.29  18266.04  73.80
819.1  24717.85  18230.54  73.75
820.3  24615.89  18172.15  73.82
821.5  24558.22  18158.09  73.94
822.7  24525.20  18168.01  74.08
823.9  24512.51  18205.63  74.27
825.1  24512.73  18220.61  74.33
826.3  24527.23  18262.67  74.46
827.5  24554.23  18315.21  74.59
828.7  24585.24  18354.00  74.65
829.9  24620.63  18407.36  74.76
831.0  24677.45  18479.86  74.89
832.2  24735.00  18551.63  75.00
833.4  24800.15  18628.92  75.12
834.6  24827.34  18705.94  75.34
835.8  24886.58  18780.62  75.46
837.0  24941.18  18871.67  75.66
838.1  25036.55  18987.05  75.84
839.3  25073.20  19064.10  76.03
840.5  25138.07  19157.65  76.21
841.7  25214.76  19284.70  76.48
842.9  25311.78  19425.31  76.74
844.0  25352.29  19513.74  76.97
845.2  25454.19  19641.67  77.16
846.4  25527.43  19728.90  77.29
847.5  25656.16  19873.22  77.46
848.7  25745.00  19980.33  77.61
849.9  25879.71  20062.67  77.52
851.0  25913.04  20066.67  77.44
852.2  25966.07  20090.00  77.37
853.3  25941.98  20078.91  77.40
854.5  25934.86  20088.46  77.46
855.6  25916.94  20121.31  77.64
856.8  25944.85  20181.35  77.79
857.9  25943.54  20210.27  77.90
859.1  25996.60  20300.87  78.09
860.2  26027.46  20340.50  78.15
861.4  26023.97  20398.92  78.39
862.5  26059.24  20453.06  78.49
863.7  26115.12  20506.66  78.52
864.8  26101.25  20542.29  78.70
865.9  26082.46  20555.58  78.81
867.1  26099.25  20597.74  78.92
868.2  26099.69  20626.67  79.03
869.3  26128.19  20653.28  79.05
870.5  26099.47  20640.69  79.08
871.6  26087.08  20680.97  79.28
872.7  26136.21  20743.93  79.37
873.9  26148.82  20781.47  79.47
875.0  26142.73  20775.08  79.47
876.1  26142.29  20799.83  79.56
877.2  26184.05  20830.27  79.55
878.3  26169.01  20825.29  79.58
879.4  26191.11  20871.18  79.69
880.5  26214.48  20902.58  79.74
881.7  26220.35  20898.54  79.70
882.8  26271.44  20902.86  79.56
883.9  26272.50  20900.07  79.55
885.0  26275.91  20838.55  79.31
886.1  26278.81  20788.62  79.11
887.2  26194.66  20706.68  79.05
888.3  26154.69  20626.39  78.86
889.4  26083.75  20552.69  78.79
890.5  26060.47  20532.00  78.79
891.6  26043.45  20513.56  78.77
892.7  26025.13  20506.46  78.79
893.8  26046.70  20543.00  78.87
894.9  26070.72  20553.46  78.84
896.0  26059.51  20527.01  78.77
897.0  26054.12  20555.24  78.89
898.1  26079.30  20571.82  78.88
899.2  26095.96  20558.59  78.78
900.3  26052.56  20522.78  78.77
901.4  26029.33  20485.96  78.70
902.4  26018.83  20484.24  78.73
903.5  26017.27  20453.17  78.61
904.6  26012.16  20451.38  78.62
905.7  26050.43  20443.75  78.48
906.7  26024.14  20429.41  78.50
907.8  26076.86  20439.23  78.38
908.9  26057.48  20413.23  78.34
909.9  26017.06  20369.79  78.29
911.0  26009.49  20334.87  78.18
912.1  25979.15  20287.64  78.09
913.1  25944.88  20223.70  77.95
914.2  25856.17  20160.77  77.97
915.2  25844.13  20131.85  77.90
916.3  25883.78  20114.07  77.71
917.3  25847.25  20084.44  77.70
918.4  25819.06  20000.66  77.46
919.4  25792.96  19951.88  77.35
920.5  25804.34  19918.30  77.19
921.5  25824.68  19884.45  77.00
922.6  25820.42  19787.06  76.63
923.6  25802.74  19776.60  76.65
924.7  25837.63  19731.98  76.37
925.7  25830.51  19670.36  76.15
926.7  25889.20  19604.12  75.72
927.8  25949.67  19528.85  75.26
928.8  26061.51  19516.11  74.88
929.9  26114.55  19504.90  74.69
930.9  26214.58  19533.82  74.52
931.9  26363.30  19556.81  74.18
932.9  26568.63  19602.31  73.78
934.0  26604.58  19552.60  73.49
935.0  26610.78  19492.97  73.25
936.0  26639.41  19416.32  72.89
937.0  26632.91  19321.45  72.55
938.1  26589.57  19237.03  72.35
939.1  26594.73  19161.51  72.05
940.1  26647.30  19108.36  71.71
941.1  26757.94  19126.29  71.48
942.1  26950.86  19127.84  70.97
943.1  27064.46  19141.27  70.72
944.1  27200.04  19140.53  70.37
945.2  27250.86  19038.71  69.86
946.2  27341.46  18965.54  69.37
947.2  27385.31  18896.20  69.00
948.2  27528.14  18832.54  68.41
949.2  27562.84  18750.01  68.03
950.2  27601.23  18662.15  67.61
951.2  27696.06  18613.50  67.21
952.2  27776.58  18496.41  66.59
953.2  27874.44  18451.84  66.20
954.2  27994.28  18373.41  65.63
955.2  28013.52  18287.52  65.28
956.2  27975.49  18185.89  65.01
957.2  28074.45  18146.88  64.64
958.2  28163.05  18093.72  64.25
959.2  28188.45  18065.25  64.09
960.1  28244.69  18012.83  63.77
961.1  28322.00  18014.44  63.61
962.1  28304.06  17965.69  63.47
963.1  28357.97  17978.59  63.40
964.1  28464.51  18003.87  63.25
965.1  28543.56  18040.50  63.20
966.1  28584.14  18025.26  63.06
967.0  28655.80  18049.20  62.99
968.0  28697.14  18060.18  62.93
969.0  28718.80  18101.55  63.03
970.0  28760.47  18114.17  62.98
971.0  28834.42  18164.20  62.99
971.9  28848.78  18179.18  63.02
972.9  28890.31  18158.69  62.85
973.9  28948.56  18160.78  62.73
974.9  29046.70  18227.92  62.75
975.8  29063.68  18225.35  62.71
976.8  29052.58  18264.48  62.87
977.8  29165.54  18286.20  62.70
978.8  29197.88  18416.51  63.07
979.7  29189.32  18462.12  63.25
980.7  29306.81  18501.33  63.13
981.7  29477.75  18663.44  63.31
982.6  29574.16  18771.91  63.47
983.6  29987.80  19134.31  63.81
984.6  30188.75  19336.90  64.05
985.5  30563.82  19614.93  64.18
986.5  30946.12  19977.31  64.56
987.5  31666.80  20561.27  64.93
988.4  32276.75  20692.69  64.11
989.4  33081.94  21172.44  64.00
990.4  33865.04  21545.17  63.62
991.3  34680.98  22064.03  63.62
992.3  35996.38  22276.02  61.88
993.2  37249.57  22903.25  61.49
994.2  37192.84  23192.82  62.36
995.2  38468.72  23258.42  60.46
996.1  38815.33  22983.56  59.21
997.1  39248.66  23321.19  59.42
998.0  39056.40  22862.84  58.54
999.0  38843.24  22691.68  58.42
1000.0  39939.10  22500.90  56.34
1000.9  41119.71  22822.42  55.50
1001.9  38921.76  22136.75  56.87
1002.8  38260.04  22189.43  58.00
1003.8  38840.71  22751.64  58.58
1004.8  39018.78  22544.18  57.78
961.5  34611.80  16564.68  47.86
965.5  33947.81  16405.26  48.32
969.5  32673.62  15939.40  48.78
973.4  31329.21  15326.52  48.92
977.4  30182.73  14825.57  49.12
981.4  29653.05  14743.62  49.72
985.3  29580.67  14956.42  50.56
989.3  29694.74  15397.27  51.85
993.3  29811.28  15882.48  53.28
997.2  29873.76  16223.11  54.31
1001.2  29847.48  16460.21  55.15
1005.2  29766.32  16624.15  55.85
1009.1  29802.16  16822.14  56.45
1013.1  29912.80  17095.61  57.15
1017.1  29980.27  17402.74  58.05
1021.0  29997.45  17654.57  58.85
1025.0  29986.05  17875.42  59.61
1029.0  29874.56  18017.51  60.31
1032.9  29757.39  18141.54  60.96
1036.9  29719.10  18315.52  61.63
1040.9  29786.91  18556.34  62.30
1044.8  29914.06  18850.69  63.02
1048.8  30017.23  19117.50  63.69
1052.7  30081.05  19330.58  64.26
1056.7  30106.96  19486.46  64.72
1060.7  30124.55  19609.85  65.10
1064.6  30126.20  19695.88  65.38
1068.6  30068.46  19702.80  65.53
1072.5  30024.99  19680.81  65.55
1076.5  29992.38  19657.67  65.54
1080.4  29983.51  19616.97  65.43
1084.4  30049.89  19591.33  65.20
1088.3  30134.74  19541.52  64.85
1092.3  30115.74  19399.84  64.42
1096.2  30104.84  19261.27  63.98
1100.2  30142.18  19136.38  63.49
1104.1  30082.71  18923.83  62.91
1108.1  30052.27  18738.71  62.35
1112.0  29977.43  18532.47  61.82
1116.0  29868.35  18236.36  61.06
1119.9  29779.89  17910.87  60.14
1123.9  29822.35  17618.55  59.08
1127.8  29798.40  17177.60  57.65
1131.8  29786.58  16603.98  55.74
1135.7  29821.64  15922.09  53.39
1139.6  29831.38  15161.47  50.82
1143.6  29819.95  14423.90  48.37
1147.5  29803.64  13782.72  46.25
1151.4  29713.98  13239.61  44.56
1155.4  29731.43  12901.12  43.39
1159.3  29760.66  12692.06  42.65
1163.2  29674.15  12511.55  42.16
1167.2  29672.28  12427.76  41.88
1171.1  29681.80  12377.35  41.70
1175.0  29651.52  12309.86  41.52
1179.0  29638.87  12257.26  41.36
1182.9  29697.98  12228.78  41.18
1186.8  29706.14  12185.88  41.02
1190.7  29571.10  12086.03  40.87
1194.7  29411.94  11977.11  40.72
1198.6  29289.65  11903.43  40.64
1202.5  29196.66  11864.49  40.64
1206.4  29112.98  11853.08  40.71
1210.3  29056.59  11866.94  40.84
1214.2  29008.58  11893.53  41.00
1218.2  28915.95  11914.64  41.20
1222.1  28833.10  11950.48  41.45
1226.0  28785.60  12012.55  41.73
1229.9  28734.48  12071.28  42.01
1233.8  28673.70  12114.88  42.25
1237.7  28644.25  12171.18  42.49
1241.6  28596.57  12214.29  42.71
1245.5  28494.07  12223.97  42.90
1249.4  28422.55  12234.58  43.05
1253.3  28356.92  12249.11  43.20
1257.2  28323.43  12270.35  43.32
1261.1  28264.79  12270.53  43.41
1265.0  28184.91  12248.52  43.46
1268.9  28067.43  12189.42  43.43
1272.8  28106.70  12187.55  43.36
1276.7  28238.01  12205.55  43.22
1280.6  28297.17  12173.72  43.02
1284.5  28250.81  12082.63  42.77
1288.4  28234.52  11977.44  42.42
1292.3  28165.50  11825.92  41.99
1296.2  28076.33  11658.44  41.52
1300.1  27971.71  11457.38  40.96
1303.9  27830.79  11216.01  40.30
1307.8  27679.51  10948.47  39.55
1311.7  27513.83  10665.42  38.76
1315.6  27356.90  10367.02  37.90
1319.5  27190.78  10039.18  36.92
1323.3  27036.43  9709.90  35.91
1327.2  26898.46  9379.16  34.87
1331.1  26745.75  9040.70  33.80
1335.0  26551.82  8693.42  32.74
1338.8  26417.20  8382.11  31.73
1342.7  26306.22  8102.61  30.80
1346.5  26068.84  7795.00  29.90
1350.4  25867.11  7516.71  29.06
1354.3  25587.95  7240.79  28.30
1358.1  25293.52  6961.94  27.52
1362.0  25095.25  6716.53  26.76
1365.8  25024.00  6499.61  25.97
1369.7  25106.98  6302.55  25.10
1373.5  25078.13  6021.98  24.01
1377.4  24917.97  5639.04  22.63
1381.2  24782.40  5183.79  20.92
1385.1  24754.66  4729.66  19.11
1389.0  24692.16  4298.46  17.41
1392.8  24567.88  3863.10  15.72
1396.6  24460.52  3466.06  14.17
1400.5  24320.99  3139.34  12.91
1404.3  24225.89  2885.90  11.91
1408.2  24204.64  2686.15  11.10
1412.0  24174.50  2531.16  10.47
1415.8  24201.79  2425.99  10.02
1419.6  24176.54  2338.60  9.67
1423.5  24162.30  2273.36  9.41
1427.3  24156.22  2227.34  9.22
1431.1  24149.78  2190.15  9.07
1434.9  24082.82  2159.76  8.97
1438.8  24045.91  2142.15  8.91
1442.6  24021.66  2129.51  8.86
1446.4  23948.95  2109.08  8.81
1450.2  23899.20  2101.90  8.79
1454.0  23823.72  2102.16  8.82
1457.8  23805.13  2106.31  8.85
1461.6  23794.65  2113.82  8.88
1465.4  23719.51  2125.20  8.96
1469.2  23598.58  2136.23  9.05
1473.0  23505.47  2154.04  9.16
1476.8  23479.35  2193.71  9.34
1480.7  23444.07  2242.54  9.57
1484.4  23358.60  2290.64  9.81
1488.2  23294.76  2345.36  10.07
1492.0  23212.99  2403.62  10.35
1495.8  23134.48  2465.34  10.66
1499.6  23068.04  2516.02  10.91
1503.4  22989.82  2559.51  11.13
1507.2  22924.40  2601.22  11.35
1510.9  22832.54  2646.03  11.59
1514.7  22729.47  2685.63  11.82
1518.5  22650.58  2734.53  12.07
1522.3  22564.73  2789.10  12.36
1526.0  22502.83  2840.53  12.62
1529.8  22457.39  2899.32  12.91
1533.6  22379.96  2949.26  13.18
1537.3  22300.49  2995.65  13.43
1541.1  22218.14  3041.40  13.69
1544.8  22130.40  3090.40  13.96
1548.6  22049.49  3140.42  14.24
1552.4  21992.28  3186.41  14.49
1556.1  21940.64  3222.17  14.69
1559.9  21881.16  3252.65  14.87
1563.6  21806.79  3288.06  15.08
1567.3  21732.27  3337.24  15.36
1571.1  21585.13  3383.00  15.67
1574.8  21494.94  3434.10  15.98
1578.6  21441.85  3484.89  16.25
1582.3  21360.05  3519.79  16.48
1586.0  21278.88  3544.48  16.66
1589.8  21182.42  3570.51  16.86
1593.5  21087.16  3593.39  17.04
1597.2  21011.15  3619.91  17.23
1600.9  20910.91  3642.15  17.42
1604.7  20817.19  3665.38  17.61
1608.4  20751.75  3702.03  17.84
1612.1  20653.79  3725.45  18.04
1615.8  20554.46  3743.73  18.21
1619.5  20509.10  3775.67  18.41
1623.2  20415.20  3801.25  18.62
1626.9  20293.94  3815.46  18.80
1630.6  20187.64  3827.63  18.96
1634.3  20108.09  3842.20  19.11
1638.0  20016.12  3847.96  19.22
1641.7  19907.78  3844.00  19.31
1645.4  19793.59  3843.17  19.42
1649.1  19676.58  3828.65  19.46
1652.8  19573.89  3817.22  19.50
1656.4  19468.81  3803.57  19.54
1660.1  19373.12  3789.43  19.56
1663.8  19253.37  3772.67  19.59
1667.5  19154.03  3758.95  19.62
1671.1  19073.44  3748.50  19.65
1674.8  18955.63  3725.80  19.66
1678.5  18920.35  3712.71  19.62
1682.1  18926.99  3702.69  19.56
1685.8  18934.59  3694.99  19.51
1689.5  18875.64  3669.74  19.44
1693.1  18777.51  3636.37  19.37
1696.8  18693.63  3602.09  19.27
1700.4  18605.80  3562.68  19.15
1704.0  18533.22  3520.23  18.99
1707.7  18380.44  3463.40  18.84
1711.3  18186.09  3392.10  18.65
1715.0  18064.01  3329.87  18.43
1718.6  17962.81  3276.93  18.24
1722.2  17869.77  3226.72  18.06
1725.9  17778.98  3174.70  17.86
1729.5  17683.82  3128.40  17.69
1733.1  17615.86  3096.31  17.58
1736.7  17543.89  3065.92  17.48
1740.3  17426.02  3024.09  17.35
1744.0  17375.79  2989.41  17.20
1747.5  17289.32  2941.73  17.01
1751.2  17148.24  2876.36  16.77
1754.8  17043.21  2826.23  16.58
1758.4  16959.78  2781.33  16.40
1762.0  16844.84  2730.63  16.21
1765.5  16763.61  2694.79  16.08
1769.1  16735.20  2674.40  15.98
1772.7  16687.95  2653.42  15.90
1776.3  16608.65  2626.82  15.82
1779.9  16528.93  2596.67  15.71
1783.5  16504.40  2577.55  15.62
1787.0  16420.93  2552.31  15.54
1790.6  16313.97  2530.25  15.51
1794.2  16250.54  2523.87  15.53
1797.8  16183.76  2512.11  15.52
1801.3  16118.56  2502.54  15.53
1804.9  16020.38  2490.25  15.54
1808.4  15971.30  2485.73  15.56
1812.0  15882.75  2477.89  15.60
1815.5  15784.84  2460.30  15.59
1819.1  15650.89  2437.49  15.57
1822.6  15532.45  2422.32  15.60
1826.2  15446.30  2405.56  15.57
1829.7  15337.22  2384.59  15.55
1833.2  15178.78  2358.47  15.54
1836.8  15030.02  2322.93  15.46
1840.3  14950.04  2300.60  15.39
1843.8  14886.20  2287.81  15.37
1847.3  14837.06  2275.38  15.34
1850.8  14793.41  2268.67  15.34
1854.3  14722.56  2237.16  15.20
1857.8  14658.80  2166.67  14.78
1861.3  14629.20  2079.70  14.22
1864.8  14572.84  1952.42  13.40
1868.3  14425.58  1797.08  12.46
1871.8  14284.80  1640.96  11.49
1875.3  14255.61  1498.02  10.51
1878.8  14246.03  1394.70  9.79
1882.3  14193.40  1295.06  9.12
1885.8  14118.50  1215.36  8.61
1889.3  13979.52  1151.06  8.23
1892.7  13865.36  1089.04  7.85
1896.2  13804.86  1067.60  7.73
1899.7  13707.11  1070.35  7.81
1903.1  13634.54  1099.56  8.06
1906.6  13688.09  1166.08  8.52
1910.0  13884.77  1257.83  9.06
1913.5  14226.75  1401.33  9.85
1917.0  14474.60  1661.63  11.48
1920.4  14745.78  1941.45  13.17
1923.8  15062.87  2004.77  13.31
1871.2  12888.95  942.44  7.31
1873.9  13047.08  955.71  7.33
1876.7  13250.10  921.95  6.96
1879.5  13307.88  794.50  5.97
1882.3  13009.24  751.80  5.78
1885.1  13033.44  721.21  5.53
1887.8  13145.19  629.49  4.79
1890.6  12997.04  623.74  4.80
1893.4  12958.00  611.11  4.72
1896.2  12845.61  547.84  4.26
1898.9  12795.28  533.14  4.17
1901.7  12697.20  509.46  4.01
1904.5  12812.38  509.60  3.98
1907.2  12777.50  514.58  4.03
1910.0  12693.31  504.39  3.97
1912.7  12674.55  507.09  4.00
1915.5  12622.22  505.54  4.01
1918.2  12592.16  500.97  3.98
1921.0  12470.84  491.68  3.94
1923.7  12502.92  501.36  4.01
1926.5  12525.14  512.38  4.09
1929.2  12499.59  500.24  4.00
1932.0  12466.20  508.76  4.08
1934.7  12450.39  509.64  4.09
1937.4  12388.06  497.30  4.01
1940.2  12333.29  506.08  4.10
1942.9  12377.93  511.56  4.13
1945.6  12406.16  516.42  4.16
1948.3  12364.25  523.45  4.23
1951.1  12353.04  513.71  4.16
1953.8  12345.00  511.00  4.14
1956.5  12249.55  522.13  4.26
1959.2  12291.89  512.29  4.17
1961.9  12307.40  503.62  4.09
1964.6  12224.28  517.65  4.23
1967.3  12284.97  534.99  4.35
1970.0  12156.72  525.89  4.33
1972.8  12093.19  516.75  4.27
1975.5  12180.79  529.73  4.35
1978.2  12109.24  540.20  4.46
1980.9  12027.29  538.31  4.48
1983.5  11996.88  533.19  4.44
1986.2  11983.38  533.50  4.45
1988.9  11983.38  540.29  4.51
1991.6  11899.51  549.40  4.62
1994.3  11798.84  557.45  4.72
1997.0  11807.25  554.56  4.70
1999.7  11770.96  552.32  4.69
2002.3  11768.44  554.24  4.71
2005.0  11742.55  565.74  4.82
2007.7  11687.40  572.38  4.90
2010.4  11651.26  569.10  4.88
2013.0  11630.36  578.49  4.97
2015.7  11528.64  589.17  5.11
2018.4  11457.30  575.84  5.03
2021.0  11452.33  577.06  5.04
2023.7  11380.16  589.83  5.18
2026.4  11323.00  581.17  5.13
2029.0  11263.54  597.95  5.31
2031.7  11193.43  607.46  5.43
2034.3  11193.43  593.38  5.30
2037.0  11130.51  598.66  5.38
2039.6  11076.09  598.30  5.40
2042.3  11047.98  593.49  5.37
2044.9  11026.46  615.23  5.58
2047.5  11001.21  619.91  5.63
2050.2  10900.40  604.80  5.55
2052.8  10894.80  618.80  5.68
2055.4  10822.84  632.24  5.84
2058.1  10738.00  616.00  5.74
2060.7  10718.83  620.49  5.79
2063.3  10653.43  635.36  5.96
2065.9  10619.50  616.03  5.80
2068.6  10577.63  623.47  5.89
2071.2  10537.83  639.84  6.07
2073.8  10490.95  627.76  5.98
2076.4  10463.25  641.79  6.13
2079.0  10439.15  629.44  6.03
2081.6  10423.40  623.62  5.98
2084.2  10414.77  651.81  6.26
2086.8  10346.04  647.69  6.26
2089.4  10282.92  638.25  6.21
2092.1  10234.00  647.89  6.33
2094.7  10195.43  644.10  6.32
2097.2  10197.17  639.39  6.27
2099.8  10202.45  656.63  6.44
2102.4  10082.46  657.76  6.52
2105.0  9986.40  647.90  6.49
2107.6  9963.47  648.47  6.51
2110.2  9945.83  646.95  6.50
2112.8  9950.08  651.89  6.55
2115.3  9950.34  674.52  6.78
2117.9  9955.62  666.42  6.69
2120.5  9928.49  669.48  6.74
2123.1  9866.03  686.40  6.96
2125.6  9842.13  673.52  6.84
2128.2  9772.14  671.18  6.87
2130.8  9719.78  681.53  7.01
2133.3  9694.67  680.53  7.02
2135.9  9628.08  679.53  7.06
2138.4  9561.93  690.50  7.22
2141.0  9493.76  679.74  7.16
2143.6  9481.01  665.49  7.02
2146.1  9385.04  678.76  7.23
2148.7  9294.55  684.24  7.36
2151.2  9319.20  677.60  7.27
2153.8  9286.22  685.80  7.39
2156.3  9196.68  680.25  7.40
2158.8  9176.01  674.34  7.35
2161.4  9166.37  685.00  7.47
2163.9  9107.40  686.96  7.54
2166.4  9056.27  682.00  7.53
2169.0  9041.49  682.01  7.54
2171.5  8982.35  682.00  7.59
2174.0  8919.05  683.26  7.66
2176.5  8910.20  699.66  7.85
2179.1  8872.37  684.65  7.72
2181.6  8820.83  668.15  7.57
2184.1  8802.64  694.03  7.88
2186.6  8815.58  694.62  7.88
2189.1  8766.51  683.73  7.80
2191.6  8725.27  699.07  8.01
2194.1  8759.24  701.98  8.01
2196.6  8743.02  682.73  7.81
2199.2  8762.69  693.02  7.91
2201.7  8728.52  697.23  7.99
2204.1  8693.38  671.92  7.73
2206.6  8724.47  691.29  7.92
2209.1  8690.36  691.39  7.96
2211.6  8648.75  677.59  7.83
2214.1  8641.19  695.71  8.05
2216.6  8629.81  710.29  8.23
2219.1  8603.23  684.97  7.96
2221.6  8565.00  680.12  7.94
2224.0  8580.12  678.18  7.90
2226.5  8553.64  658.27  7.70
2229.0  8526.93  666.16  7.81
2231.5  8456.64  663.87  7.85
2233.9  8447.09  646.52  7.65
2236.4  8434.10  651.05  7.72
2238.9  8377.75  670.38  8.00
2241.3  8418.52  643.89  7.65
2243.8  8391.31  636.12  7.58
2246.2  8272.81  626.73  7.58
2248.7  8260.98  599.07  7.25
2251.2  8270.85  614.93  7.43
2253.6  8217.60  608.00  7.40
2256.1  8198.40  586.24  7.15
2258.5  8205.80  599.30  7.30
2260.9  8176.22  585.48  7.16
2263.4  8125.75  575.75  7.09
2265.8  8124.16  570.59  7.02
2268.3  8073.80  559.29  6.93
2270.7  8110.40  551.44  6.80
2273.1  8107.19  562.47  6.94
2275.6  8037.12  552.96  6.88
2278.0  8047.94  536.78  6.67
2280.4  8050.71  546.47  6.79
2282.8  7936.92  536.87  6.76
2285.3  7936.09  535.29  6.75
2287.7  8013.06  536.29  6.69
2290.1  7946.20  506.03  6.37
2292.5  7908.89  490.75  6.21
2294.9  7966.56  529.53  6.65
2297.3  7878.36  508.88  6.46
2299.7  7782.17  486.96  6.26
2302.1  7817.38  500.21  6.40
2304.5  7722.40  479.55  6.21
2306.9  7647.92  462.56  6.05
2309.3  7632.91  471.51  6.18
2311.7  7536.00  461.84  6.13
2314.1  7439.51  441.10  5.93
2316.5  7426.90  470.17  6.33
2318.9  7433.98  466.43  6.27
2321.3  7420.20  450.31  6.07
2323.7  7439.58  464.56  6.24
2326.1  7403.11  451.36  6.10
2328.4  7412.50  438.03  5.91
2330.8  7505.15  443.08  5.90
2333.2  7417.12  432.43  5.83
2335.6  7356.75  413.78  5.62
2337.9  7411.84  435.42  5.87
2340.3  7376.47  454.82  6.17
2342.7  7282.70  428.81  5.89
2345.0  7270.29  416.17  5.72
2347.4  7284.50  432.08  5.93
2349.7  7133.68  415.77  5.83
2352.1  7080.04  411.68  5.81
2354.4  7143.83  398.31  5.58
2356.8  7126.82  392.82  5.51
2359.2  7067.67  423.22  5.99
2361.5  7038.06  404.34  5.75
2363.8  7031.06  387.93  5.52
2366.2  7039.27  408.97  5.81
2368.5  7035.45  399.02  5.67
2370.9  7023.13  363.83  5.18
2373.2  6987.82  376.22  5.38
2375.5  6900.63  396.69  5.75
2377.9  6892.20  382.90  5.56
2380.2  6890.83  375.70  5.45
2382.5  6864.93  367.60  5.35
2384.8  6830.08  368.11  5.39
2387.2  6784.02  387.57  5.71
2389.5  6780.31  387.18  5.71
2391.8  6787.76  386.60  5.70
2394.1  6727.26  387.07  5.75
2396.4  6676.90  369.33  5.53
2398.7  6732.64  363.75  5.40
2401.0  6690.59  369.23  5.52
2403.3  6603.48  346.94  5.25
2405.6  6572.81  349.88  5.32
2407.9  6583.14  390.78  5.94
2410.2  6542.40  379.34  5.80
2412.5  6479.13  338.78  5.23
2414.8  6475.24  357.74  5.52
2417.1  6452.08  328.63  5.09
2419.4  6434.35  303.92  4.72
2421.7  6386.85  357.45  5.60
2424.0  6345.28  343.42  5.41
2426.2  6355.80  317.43  4.99
2428.5  6327.75  335.32  5.30
2430.8  6349.25  359.70  5.67
2433.1  6300.57  326.37  5.18
2435.4  6204.86  320.78  5.17
2437.6  6227.24  326.38  5.24
2439.9  6165.27  286.37  4.64
2442.2  6149.09  320.44  5.21
2444.4  6162.60  313.97  5.09
2446.7  6079.44  297.84  4.90
2448.9  6081.55  335.56  5.52
2451.2  6103.04  290.05  4.75
2453.4  6038.72  285.26  4.72
2455.7  6026.93  330.44  5.48
2457.9  5958.48  321.53  5.40
2460.2  5949.23  287.70  4.84
2462.4  5977.92  287.04  4.80
2464.7  5891.98  264.95  4.50
2466.9  5829.36  252.52  4.33
2469.2  5872.39  287.36  4.89
2471.4  5796.90  280.11  4.83
2473.6  5737.62  254.41  4.43
2475.9  5730.24  275.45  4.81
2478.1  5663.45  282.38  4.99
2480.3  5645.91  276.15  4.89
2482.5  5682.93  274.02  4.82
2484.8  5614.17  283.99  5.06
2487.0  5547.59  276.52  4.98
2489.2  5555.75  281.43  5.07
2491.4  5471.72  284.35  5.20
2493.6  5479.00  232.54  4.24
2495.8  5550.75  253.39  4.56
2498.0  5512.53  294.54  5.34
2500.2  5509.95  292.07  5.30
2502.4  5736.48  266.40  4.64
2504.6  5803.02  241.01  4.15
2506.8  5806.03  211.07  3.64
