/*** Spectra Vista SIG Data ***/
name= B.sig
comm= Averaged Ref/Tar of files: RD3B1,RD3B2,RD3B3
data=
346.4  598.78  166.68  27.84
347.9  627.50  164.20  26.17
349.5  677.04  165.88  24.50
351.1  739.44  171.60  23.21
352.6  790.63  178.15  22.53
354.2  841.03  187.08  22.24
355.7  912.59  193.07  21.16
357.3  974.37  202.85  20.82
358.8  992.58  206.21  20.77
360.4  1062.29  216.92  20.42
361.9  1117.88  210.69  18.85
363.5  1149.55  212.37  18.47
365.1  1196.29  214.41  17.92
366.6  1260.16  215.78  17.12
368.2  1349.72  220.47  16.33
369.7  1403.95  216.03  15.39
371.3  1488.21  221.14  14.86
372.8  1577.00  228.53  14.49
374.4  1638.71  234.18  14.29
375.9  1688.10  237.22  14.05
377.4  1740.09  239.06  13.74
379.0  1788.57  239.22  13.37
380.5  1855.73  237.48  12.80
382.1  1905.98  229.51  12.04
383.6  1973.16  232.94  11.81
385.2  2065.25  238.34  11.54
386.7  2149.76  237.36  11.04
388.3  2271.83  246.84  10.87
389.8  2363.45  253.91  10.74
391.3  2453.59  260.86  10.63
392.9  2526.36  270.75  10.72
394.4  2602.50  280.92  10.79
395.9  2690.98  293.59  10.91
397.5  2829.48  307.93  10.88
399.0  2963.31  306.94  10.36
400.6  3033.76  302.81  9.98
402.1  3072.78  288.96  9.40
403.6  3116.75  284.51  9.13
405.1  3199.00  286.39  8.95
406.7  3304.00  293.81  8.89
408.2  3412.53  302.94  8.88
409.7  3521.28  309.12  8.78
411.3  3642.17  319.39  8.77
412.8  3732.75  331.41  8.88
414.3  3845.02  342.24  8.90
415.8  3965.00  354.58  8.94
417.4  4085.95  363.06  8.89
418.9  4192.21  374.44  8.93
420.4  4267.16  374.71  8.78
421.9  4346.32  377.52  8.69
423.5  4413.15  379.83  8.61
425.0  4492.75  384.32  8.55
426.5  4594.55  387.72  8.44
428.0  4712.54  386.56  8.20
429.5  4856.53  397.96  8.19
431.1  5025.20  408.61  8.13
432.6  5198.44  421.03  8.10
434.1  5370.75  427.99  7.97
435.6  5520.56  440.86  7.99
437.1  5670.60  450.78  7.95
438.6  5806.58  462.76  7.97
440.1  5943.54  471.50  7.93
441.6  6091.61  481.60  7.91
443.1  6230.93  493.43  7.92
444.7  6356.12  505.87  7.96
446.2  6474.98  516.78  7.98
447.7  6582.53  530.03  8.05
449.2  6691.68  541.44  8.09
450.7  6814.08  541.84  7.95
452.2  6930.56  543.98  7.85
453.7  7066.33  550.68  7.79
455.2  7233.85  562.43  7.78
456.7  7443.04  577.28  7.76
458.2  7673.27  591.53  7.71
459.7  7920.50  610.17  7.70
461.2  8156.07  629.22  7.71
462.7  8366.46  643.21  7.69
464.2  8568.06  660.02  7.70
465.7  8788.58  678.09  7.72
467.2  8970.50  696.53  7.76
468.7  9176.00  709.33  7.73
470.2  9305.26  728.62  7.83
471.7  9490.50  754.07  7.95
473.2  9788.42  774.49  7.91
474.6  10042.30  778.88  7.76
476.1  10127.24  768.85  7.59
477.6  10169.21  765.06  7.52
479.1  10224.56  768.48  7.52
480.6  10293.47  767.44  7.46
482.1  10426.95  777.26  7.45
483.6  10590.11  783.75  7.40
485.1  10796.39  797.37  7.39
486.6  11041.55  813.32  7.37
488.0  11290.50  830.92  7.36
489.5  11568.25  851.91  7.36
491.0  11840.59  875.05  7.39
492.5  12119.22  898.83  7.42
494.0  12409.65  925.14  7.46
495.4  12660.45  951.78  7.52
496.9  12912.44  978.34  7.58
498.4  13155.80  1005.07  7.64
499.9  13408.52  1035.65  7.72
501.4  13645.90  1067.65  7.82
502.8  13864.50  1101.61  7.95
504.3  14081.40  1128.60  8.01
505.8  14291.05  1160.46  8.12
507.2  14436.37  1188.87  8.24
508.7  14548.87  1218.78  8.38
510.2  14651.50  1246.84  8.51
511.6  14718.08  1271.12  8.64
513.1  14838.45  1301.52  8.77
514.6  14986.45  1333.13  8.90
516.0  15112.04  1359.75  9.00
517.5  15305.31  1394.38  9.11
519.0  15537.89  1432.93  9.22
520.5  15768.60  1472.99  9.34
521.9  16045.99  1520.05  9.47
523.4  16363.11  1564.96  9.56
524.8  16675.79  1613.79  9.68
526.3  17027.53  1664.76  9.78
527.8  17380.80  1717.31  9.88
529.2  17706.86  1766.76  9.98
530.7  18056.71  1818.72  10.07
532.1  18377.28  1862.55  10.14
533.6  18738.23  1916.48  10.23
535.0  19114.67  1966.97  10.29
536.5  19476.07  2017.46  10.36
538.0  19846.24  2067.55  10.42
539.4  20198.95  2121.39  10.50
540.9  20626.19  2179.61  10.57
542.3  20984.92  2237.14  10.66
543.8  21250.33  2280.45  10.73
545.2  21329.19  2299.98  10.78
546.6  21331.64  2317.18  10.86
548.1  21362.06  2337.40  10.94
549.5  21376.46  2359.35  11.04
551.0  21386.66  2380.50  11.13
552.4  21443.54  2407.52  11.23
553.9  21463.89  2432.91  11.33
555.3  21521.57  2461.10  11.44
556.8  21650.10  2502.51  11.56
558.2  21773.81  2542.78  11.68
559.6  21936.94  2591.67  11.81
561.1  22168.25  2653.36  11.97
562.5  22423.78  2716.51  12.11
564.0  22757.43  2794.88  12.28
565.4  23059.14  2874.27  12.46
566.8  23449.52  2966.52  12.65
568.3  23818.66  3060.61  12.85
569.7  24198.01  3162.63  13.07
571.1  24579.14  3264.23  13.28
572.6  24952.86  3370.41  13.51
574.0  25317.60  3482.60  13.76
575.4  25678.69  3592.97  13.99
576.9  26008.29  3712.75  14.28
578.3  26306.64  3826.14  14.54
579.7  26593.28  3948.99  14.85
581.1  26823.10  4064.69  15.15
582.6  27065.10  4190.96  15.48
584.0  27286.52  4318.09  15.82
585.4  27587.92  4461.24  16.17
586.8  27978.96  4622.19  16.52
588.3  28419.30  4796.22  16.88
589.7  28786.68  4962.36  17.24
591.1  29016.81  5108.03  17.60
592.5  29127.43  5236.18  17.98
594.0  29186.34  5356.12  18.35
595.4  29194.56  5466.71  18.73
596.8  29193.45  5582.00  19.12
598.2  29177.08  5688.91  19.50
599.6  29153.88  5797.73  19.89
601.0  29216.28  5916.92  20.25
602.4  29261.60  6031.65  20.61
603.9  29364.60  6160.29  20.98
605.3  29484.10  6284.85  21.32
606.7  29584.80  6407.40  21.66
608.1  29785.49  6549.68  21.99
609.5  30013.28  6692.74  22.30
610.9  30296.78  6850.58  22.61
612.3  30557.28  6993.86  22.89
613.7  30914.00  7165.71  23.18
615.1  31159.08  7308.63  23.46
616.5  31406.64  7445.33  23.71
617.9  31801.61  7622.83  23.97
619.3  32170.62  7798.16  24.24
620.7  32635.92  7998.56  24.51
622.1  33083.75  8149.30  24.63
623.5  33564.04  8285.59  24.69
624.9  34116.86  8423.10  24.69
626.3  34490.69  8525.01  24.72
627.7  34145.81  8525.15  24.97
629.1  33851.16  8585.82  25.36
630.5  33743.57  8723.83  25.85
631.9  33775.53  8904.84  26.36
633.3  33808.52  9079.46  26.86
634.7  33992.91  9249.53  27.21
636.1  34075.08  9359.08  27.47
637.5  34196.58  9448.69  27.63
638.9  34374.61  9499.95  27.64
640.2  34545.58  9486.90  27.46
641.6  34634.34  9411.87  27.17
643.0  34657.83  9298.75  26.83
644.4  34696.37  9164.87  26.41
645.8  34653.86  8978.99  25.91
647.2  34834.41  8838.90  25.37
648.5  34958.93  8671.06  24.80
649.9  34861.32  8454.65  24.25
651.3  34789.65  8271.78  23.78
652.7  34680.00  8088.18  23.32
654.1  34452.30  7947.03  23.07
655.5  34172.42  7817.36  22.88
656.8  33904.63  7689.29  22.68
658.2  34070.04  7631.55  22.40
659.6  34442.82  7593.61  22.05
660.9  34748.70  7510.88  21.61
662.3  35067.95  7412.83  21.14
663.7  35364.00  7309.40  20.67
665.0  35617.00  7182.20  20.17
666.4  35877.31  7066.78  19.70
667.8  36209.10  6979.81  19.28
669.1  36482.80  6902.22  18.92
670.5  36799.72  6857.02  18.63
671.9  36995.40  6815.98  18.42
673.2  37270.13  6823.82  18.31
674.6  37530.47  6854.11  18.26
676.0  37841.78  6928.02  18.31
677.3  38141.57  7047.58  18.48
678.7  38483.75  7230.31  18.79
680.0  38922.37  7506.41  19.29
681.4  39389.45  7866.58  19.97
682.8  39844.35  8344.32  20.94
684.1  40287.78  8952.45  22.22
685.5  40705.56  9692.49  23.81
686.8  41091.84  10571.44  25.73
688.2  41433.89  11571.56  27.93
689.5  41549.57  12611.38  30.35
690.9  41633.44  13720.60  32.96
692.2  41697.60  14881.38  35.69
693.6  41771.65  16061.53  38.45
694.9  41721.88  17185.99  41.19
696.2  41751.90  18304.41  43.84
697.6  41766.04  19369.51  46.38
698.9  41796.48  20399.28  48.81
700.3  41844.24  21378.69  51.09
701.6  41918.48  22314.99  53.23
703.0  41979.40  23187.54  55.24
704.3  41981.71  23954.10  57.06
705.6  41967.18  24645.47  58.73
707.0  41980.75  25297.40  60.26
708.3  41872.71  25817.90  61.66
709.6  41753.67  26289.24  62.96
711.0  41589.99  26678.55  64.15
712.3  41418.66  27016.35  65.23
713.6  41354.04  27401.78  66.26
714.9  41240.96  27719.13  67.21
716.3  41218.54  28075.03  68.11
717.6  41221.95  28423.93  68.95
718.9  41134.56  28666.25  69.69
720.2  40936.00  28797.68  70.35
721.6  40765.66  28947.19  71.01
722.9  40572.15  29059.47  71.62
724.2  40305.71  29095.10  72.19
725.5  40134.57  29169.76  72.68
726.8  39960.91  29213.46  73.11
728.1  39855.98  29303.35  73.52
729.5  39766.23  29364.30  73.84
730.8  39707.44  29436.79  74.13
732.1  39612.07  29464.93  74.38
733.4  39556.45  29513.79  74.61
734.7  39507.57  29552.95  74.80
736.0  39511.29  29633.03  75.00
737.3  39463.58  29658.92  75.16
738.6  39569.04  29828.22  75.38
739.9  39770.92  30074.78  75.62
741.2  39928.98  30277.98  75.83
742.5  40206.42  30588.58  76.08
743.8  40696.43  31039.66  76.27
745.1  41398.16  31675.77  76.51
746.4  42245.84  32372.87  76.63
747.7  43136.62  33076.88  76.68
749.0  43980.49  33741.94  76.72
750.3  44484.44  34122.18  76.71
751.6  44396.66  34065.84  76.73
752.9  43969.12  33747.77  76.75
754.2  43470.53  33419.63  76.88
755.4  42928.75  33070.26  77.04
756.7  42746.48  33003.62  77.21
758.0  42774.71  33106.01  77.40
759.3  43048.01  33400.83  77.59
760.6  43418.76  33778.87  77.80
761.9  43775.94  34124.15  77.95
763.1  43996.61  34342.02  78.06
764.4  44239.34  34597.14  78.20
765.7  44424.25  34797.21  78.33
767.0  44583.75  34961.91  78.42
768.2  44688.00  35104.72  78.56
769.5  44782.92  35205.38  78.61
770.8  44990.42  35415.87  78.72
772.0  45014.41  35485.45  78.83
773.3  45100.97  35603.02  78.94
774.6  45226.84  35754.85  79.06
775.8  45313.45  35890.59  79.21
777.1  45344.81  35966.58  79.32
778.4  45245.88  35944.55  79.44
779.6  45226.44  35984.39  79.56
780.9  45132.00  35962.00  79.68
782.1  44952.26  35863.79  79.78
783.4  44936.32  35913.97  79.92
784.6  44935.72  35979.11  80.07
785.9  45255.62  36307.37  80.23
787.1  45836.93  36871.49  80.44
788.4  46288.94  37295.43  80.57
789.6  46219.23  37219.91  80.53
790.9  45788.99  36826.71  80.43
792.1  45296.16  36439.77  80.45
793.4  44771.54  36088.32  80.61
794.6  44415.30  35874.50  80.77
795.8  44134.47  35690.27  80.87
797.1  43801.05  35491.32  81.03
798.3  43569.08  35369.81  81.18
799.5  43411.48  35316.96  81.35
800.8  43273.13  35231.23  81.42
802.0  43071.08  35129.44  81.56
803.2  42890.28  35012.67  81.63
804.5  42742.15  34939.33  81.74
805.7  42601.95  34849.63  81.80
806.9  42426.40  34745.97  81.90
808.1  42305.67  34696.78  82.01
809.4  42221.44  34670.28  82.12
810.6  42105.70  34617.92  82.22
811.8  42062.43  34618.40  82.30
813.0  42071.08  34640.72  82.34
814.2  42081.20  34673.54  82.40
815.4  42185.03  34779.36  82.44
816.6  42225.34  34804.04  82.42
817.9  42273.21  34829.09  82.39
819.1  42166.58  34735.76  82.38
820.3  42039.03  34571.64  82.24
821.5  41905.07  34446.33  82.20
822.7  41849.58  34366.02  82.12
823.9  41838.35  34344.22  82.09
825.1  41851.34  34303.71  81.97
826.3  41890.94  34286.79  81.85
827.5  41937.05  34269.20  81.72
828.7  42011.28  34244.84  81.51
829.9  42039.57  34223.64  81.41
831.0  42140.75  34241.17  81.25
832.2  42235.78  34273.53  81.15
833.4  42305.18  34290.48  81.06
834.6  42417.19  34329.69  80.93
835.8  42496.65  34375.16  80.89
837.0  42597.61  34440.42  80.85
838.1  42745.68  34567.17  80.87
839.3  42856.00  34631.38  80.81
840.5  42989.60  34725.28  80.78
841.7  43156.80  34841.79  80.73
842.9  43298.86  34985.88  80.80
844.0  43430.88  35080.63  80.77
845.2  43568.90  35205.97  80.81
846.4  43732.15  35292.85  80.70
847.5  43960.00  35488.54  80.73
848.7  44164.79  35661.76  80.75
849.9  44393.85  35822.65  80.69
851.0  44478.08  35875.34  80.66
852.2  44569.63  35936.86  80.63
853.3  44562.81  35910.53  80.58
854.5  44594.90  35916.02  80.54
855.6  44615.97  35928.75  80.53
856.8  44687.86  35972.72  80.50
857.9  44681.40  35990.62  80.55
859.1  44832.20  36125.33  80.58
860.2  44876.88  36155.01  80.56
861.4  44954.55  36198.17  80.52
862.5  45021.69  36252.41  80.52
863.7  45150.84  36340.92  80.49
864.8  45213.35  36362.20  80.42
865.9  45167.77  36320.67  80.41
867.1  45241.43  36368.22  80.39
868.2  45295.54  36391.70  80.34
869.3  45314.27  36397.92  80.32
870.5  45282.48  36345.43  80.26
871.6  45315.83  36351.61  80.22
872.7  45413.27  36433.52  80.23
873.9  45478.16  36461.54  80.17
875.0  45456.71  36404.82  80.09
876.1  45452.45  36386.61  80.05
877.2  45498.99  36371.52  79.94
878.3  45519.98  36333.68  79.82
879.4  45563.53  36344.75  79.77
880.5  45631.08  36345.06  79.65
881.7  45596.20  36275.85  79.56
882.8  45693.96  36277.76  79.39
883.9  45722.91  36277.94  79.34
885.0  45675.63  36180.58  79.21
886.1  45712.78  36127.02  79.03
887.2  45537.58  35967.89  78.99
888.3  45475.07  35829.12  78.79
889.4  45347.40  35697.58  78.72
890.5  45259.13  35590.76  78.64
891.6  45193.70  35491.51  78.53
892.7  45201.31  35430.01  78.38
893.8  45270.56  35411.82  78.22
894.9  45248.28  35366.58  78.16
896.0  45235.90  35308.90  78.06
897.0  45257.72  35292.77  77.98
898.1  45230.13  35230.58  77.89
899.2  45252.30  35191.56  77.77
900.3  45165.90  35049.74  77.60
901.4  45101.16  34932.03  77.45
902.4  45077.20  34901.69  77.43
903.5  45018.01  34791.11  77.28
904.6  45035.56  34741.76  77.14
905.7  45038.93  34684.33  77.01
906.7  44985.82  34610.52  76.94
907.8  45025.57  34593.21  76.83
908.9  44904.57  34467.97  76.76
909.9  44897.74  34393.29  76.60
911.0  44830.08  34257.60  76.42
912.1  44749.25  34129.09  76.27
913.1  44707.00  33988.85  76.03
914.2  44554.62  33804.79  75.87
915.2  44505.45  33712.92  75.75
916.3  44491.35  33637.35  75.60
917.3  44461.10  33528.52  75.41
918.4  44383.35  33324.82  75.08
919.4  44330.69  33210.44  74.92
920.5  44315.70  33100.77  74.69
921.5  44285.78  32997.05  74.51
922.6  44268.10  32824.54  74.15
923.6  44262.16  32700.85  73.88
924.7  44333.00  32585.04  73.50
925.7  44276.22  32431.58  73.25
926.7  44252.98  32297.51  72.98
927.8  44374.33  32174.34  72.51
928.8  44502.63  32102.25  72.14
929.9  44598.23  32025.18  71.81
930.9  44802.27  31995.64  71.42
931.9  45011.35  31970.01  71.03
932.9  45355.12  32043.66  70.65
934.0  45370.16  31910.66  70.33
935.0  45397.97  31730.27  69.89
936.0  45413.73  31537.31  69.44
937.0  45319.95  31313.59  69.09
938.1  45295.44  31090.85  68.64
939.1  45257.91  30894.99  68.26
940.1  45342.90  30770.85  67.86
941.1  45568.46  30741.90  67.46
942.1  45803.34  30702.19  67.03
943.1  45999.43  30609.21  66.54
944.1  46171.28  30587.99  66.25
945.2  46338.18  30421.23  65.65
946.2  46411.22  30305.37  65.30
947.2  46518.25  30129.42  64.77
948.2  46693.82  30034.61  64.32
949.2  46838.19  29846.51  63.72
950.2  46912.95  29650.19  63.20
951.2  46909.80  29445.36  62.77
952.2  47054.57  29297.12  62.26
953.2  47260.85  29200.39  61.79
954.2  47365.65  29062.09  61.36
955.2  47408.68  28868.70  60.89
956.2  47434.65  28656.48  60.41
957.2  47543.77  28534.78  60.02
958.2  47601.59  28413.10  59.69
959.2  47735.55  28366.05  59.42
960.1  47775.14  28281.57  59.20
961.1  47870.63  28203.05  58.92
962.1  47933.44  28161.56  58.75
963.1  48032.50  28139.06  58.58
964.1  48057.21  28097.19  58.47
965.1  48243.99  28159.91  58.37
966.1  48335.33  28105.44  58.15
967.0  48410.39  28180.39  58.21
968.0  48434.88  28125.49  58.07
969.0  48556.60  28169.53  58.01
970.0  48603.65  28120.37  57.86
971.0  48737.12  28139.47  57.74
971.9  48722.90  28132.38  57.74
972.9  48879.95  28148.59  57.59
973.9  48859.53  28135.52  57.58
974.9  49044.08  28122.02  57.34
975.8  49101.73  28075.02  57.18
976.8  49135.91  28062.66  57.11
977.8  49315.41  28087.70  56.96
978.8  49372.50  28119.63  56.95
979.7  49504.50  28113.67  56.79
980.7  49626.72  28107.23  56.64
981.7  49868.69  28187.91  56.52
982.6  50026.42  28333.90  56.64
983.6  50542.44  28567.47  56.52
984.6  51139.74  28779.94  56.28
985.5  51570.00  29085.48  56.40
986.5  52881.11  29720.92  56.20
987.5  53801.49  30123.95  55.99
988.4  54737.10  30854.08  56.37
989.4  56052.04  31646.31  56.46
990.4  57074.27  32210.72  56.44
991.3  59136.61  33459.62  56.58
992.3  61232.97  33779.21  55.17
993.2  62381.81  35230.02  56.47
994.2  63759.15  35801.27  56.15
995.2  64627.45  36696.82  56.78
996.1  65405.36  37338.10  57.09
997.1  65143.00  37185.80  57.08
998.0  67149.60  37628.90  56.04
999.0  66846.51  37578.58  56.22
1000.0  67127.69  37939.02  56.52
1000.9  65712.83  38234.12  58.18
1001.9  66491.34  37232.45  56.00
1002.8  64393.95  37841.90  58.77
1003.8  65025.46  37313.27  57.38
1004.8  66172.20  37801.82  57.13
961.5  59748.86  29745.52  49.78
965.5  58598.35  29284.96  49.98
969.5  56260.49  28699.51  51.01
973.4  53913.29  27963.39  51.87
977.4  51859.95  27308.18  52.66
981.4  50850.20  27236.17  53.56
985.3  50481.20  27421.56  54.32
989.3  50535.22  27800.45  55.01
993.3  50635.09  28235.82  55.76
997.2  50595.02  28580.21  56.49
1001.2  50545.04  28882.88  57.14
1005.2  50473.33  29158.85  57.77
1009.1  50535.74  29550.08  58.47
1013.1  50697.93  30043.00  59.26
1017.1  50843.90  30535.24  60.06
1021.0  50855.49  30959.98  60.88
1025.0  50816.26  31368.13  61.73
1029.0  50641.08  31674.14  62.55
1032.9  50496.42  31974.67  63.32
1036.9  50486.34  32362.77  64.10
1040.9  50614.23  32824.55  64.85
1044.8  50848.91  33338.28  65.56
1048.8  51055.33  33799.47  66.20
1052.7  51200.97  34195.07  66.79
1056.7  51265.76  34486.99  67.27
1060.7  51328.86  34700.24  67.60
1064.6  51364.29  34865.29  67.88
1068.6  51285.22  34895.55  68.04
1072.5  51205.93  34871.68  68.10
1076.5  51155.97  34809.29  68.05
1080.4  51154.95  34713.27  67.86
1084.4  51258.31  34646.82  67.59
1088.3  51367.47  34539.47  67.24
1092.3  51376.13  34305.10  66.77
1096.2  51342.58  34010.63  66.24
1100.2  51360.86  33737.23  65.69
1104.1  51244.60  33364.73  65.11
1108.1  51175.76  33001.58  64.49
1112.0  51059.75  32587.35  63.82
1116.0  50831.30  32071.57  63.09
1119.9  50653.13  31498.51  62.18
1123.9  50703.41  30963.52  61.07
1127.8  50649.60  30178.56  59.58
1131.8  50608.23  29176.98  57.65
1135.7  50617.81  28020.60  55.36
1139.6  50606.06  26750.56  52.86
1143.6  50555.26  25526.95  50.49
1147.5  50517.05  24489.14  48.48
1151.4  50365.69  23621.75  46.90
1155.4  50355.11  23052.66  45.78
1159.3  50376.78  22674.10  45.01
1163.2  50207.59  22338.39  44.49
1167.2  50161.80  22152.14  44.16
1171.1  50174.37  22034.04  43.91
1175.0  50101.08  21885.23  43.68
1179.0  50065.70  21762.01  43.47
1182.9  50165.17  21705.63  43.27
1186.8  50159.61  21605.84  43.07
1190.7  49934.95  21422.08  42.90
1194.7  49665.47  21242.15  42.77
1198.6  49438.62  21120.33  42.72
1202.5  49264.40  21056.73  42.74
1206.4  49122.14  21024.52  42.80
1210.3  49037.26  21032.71  42.89
1214.2  48930.30  21066.84  43.05
1218.2  48765.56  21096.10  43.26
1222.1  48630.48  21153.23  43.50
1226.0  48538.40  21243.21  43.77
1229.9  48450.48  21336.74  44.04
1233.8  48352.03  21415.00  44.29
1237.7  48317.50  21490.90  44.48
1241.6  48229.08  21541.19  44.66
1245.5  48061.09  21558.86  44.86
1249.4  47934.98  21573.98  45.01
1253.3  47803.87  21572.76  45.13
1257.2  47735.46  21581.02  45.21
1261.1  47624.11  21575.48  45.30
1265.0  47490.52  21541.13  45.36
1268.9  47304.07  21447.69  45.34
1272.8  47372.70  21442.45  45.26
1276.7  47590.81  21465.48  45.10
1280.6  47691.16  21414.61  44.90
1284.5  47615.01  21263.87  44.66
1288.4  47591.67  21106.10  44.35
1292.3  47467.75  20870.67  43.97
1296.2  47318.59  20591.12  43.52
1300.1  47148.87  20265.32  42.98
1303.9  46897.39  19882.41  42.40
1307.8  46639.44  19473.82  41.75
1311.7  46386.67  19024.85  41.01
1315.6  46123.85  18546.10  40.21
1319.5  45848.18  18027.09  39.32
1323.3  45606.50  17507.05  38.39
1327.2  45386.16  16993.89  37.44
1331.1  45132.53  16472.83  36.50
1335.0  44824.46  15927.16  35.53
1338.8  44600.56  15437.12  34.61
1342.7  44421.07  14994.32  33.75
1346.5  44042.02  14506.65  32.94
1350.4  43720.62  14071.71  32.19
1354.3  43279.60  13617.55  31.46
1358.1  42799.92  13153.71  30.73
1362.0  42533.76  12754.44  29.99
1365.8  42447.40  12405.28  29.23
1369.7  42569.31  12080.52  28.38
1373.5  42515.11  11643.18  27.39
1377.4  42239.08  11039.42  26.14
1381.2  42024.35  10338.28  24.60
1385.1  42007.68  9616.50  22.89
1389.0  41913.21  8858.63  21.14
1392.8  41686.58  8100.04  19.43
1396.6  41522.45  7404.45  17.83
1400.5  41297.26  6785.21  16.43
1404.3  41119.22  6270.79  15.25
1408.2  41089.83  5875.55  14.30
1412.0  41038.18  5558.41  13.54
1415.8  41063.56  5323.81  12.96
1419.6  41020.11  5133.23  12.51
1423.5  40984.07  4983.97  12.16
1427.3  40938.38  4872.39  11.90
1431.1  40915.35  4794.93  11.72
1434.9  40812.08  4728.44  11.59
1438.8  40755.58  4685.56  11.50
1442.6  40720.04  4656.78  11.44
1446.4  40579.53  4624.60  11.40
1450.2  40476.97  4605.96  11.38
1454.0  40349.16  4591.92  11.38
1457.8  40313.93  4592.98  11.39
1461.6  40291.52  4608.65  11.44
1465.4  40157.17  4630.66  11.53
1469.2  39958.10  4655.41  11.65
1473.0  39808.79  4699.73  11.81
1476.8  39739.71  4781.52  12.03
1480.7  39668.27  4871.74  12.28
1484.4  39532.92  4965.08  12.56
1488.2  39418.92  5088.20  12.91
1492.0  39281.08  5211.25  13.27
1495.8  39157.30  5328.05  13.61
1499.6  39041.55  5427.82  13.90
1503.4  38891.42  5506.45  14.16
1507.2  38758.78  5558.48  14.34
1510.9  38603.27  5597.43  14.50
1514.7  38431.80  5667.48  14.75
1518.5  38296.78  5776.13  15.08
1522.3  38148.01  5864.86  15.37
1526.0  38038.86  5929.49  15.59
1529.8  37977.87  5999.60  15.80
1533.6  37845.65  6069.80  16.04
1537.3  37710.11  6142.56  16.29
1541.1  37580.52  6221.37  16.55
1544.8  37449.60  6301.60  16.83
1548.6  37314.89  6380.22  17.10
1552.4  37219.38  6469.50  17.38
1556.1  37135.69  6560.02  17.67
1559.9  37030.39  6638.56  17.93
1563.6  36900.49  6715.48  18.20
1567.3  36782.10  6801.94  18.49
1571.1  36560.28  6868.68  18.79
1574.8  36404.14  6946.97  19.08
1578.6  36302.38  7026.29  19.35
1582.3  36157.52  7076.22  19.57
1586.0  36009.48  7116.12  19.76
1589.8  35863.84  7154.64  19.95
1593.5  35710.53  7184.38  20.12
1597.2  35575.62  7216.61  20.29
1600.9  35432.24  7254.66  20.47
1604.7  35280.85  7297.91  20.69
1608.4  35142.04  7339.10  20.88
1612.1  34980.47  7366.00  21.06
1615.8  34834.07  7396.05  21.23
1619.5  34752.20  7440.47  21.41
1623.2  34595.03  7469.72  21.59
1626.9  34406.93  7483.98  21.75
1630.6  34230.90  7493.13  21.89
1634.3  34081.71  7513.53  22.05
1638.0  33920.36  7524.73  22.18
1641.7  33748.10  7527.07  22.30
1645.4  33556.70  7523.54  22.42
1649.1  33353.05  7506.50  22.51
1652.8  33189.89  7496.30  22.59
1656.4  33018.59  7470.21  22.62
1660.1  32845.97  7444.24  22.66
1663.8  32642.92  7402.54  22.68
1667.5  32483.35  7360.93  22.66
1671.1  32351.26  7325.70  22.64
1674.8  32144.07  7271.18  22.62
1678.5  32080.00  7240.03  22.57
1682.1  32102.13  7210.28  22.46
1685.8  32123.16  7179.00  22.35
1689.5  32018.65  7114.20  22.22
1693.1  31881.24  7042.85  22.09
1696.8  31732.38  6974.58  21.98
1700.4  31582.94  6891.92  21.82
1704.0  31466.76  6807.63  21.63
1707.7  31189.67  6689.58  21.45
1711.3  30882.00  6555.93  21.23
1715.0  30659.79  6444.54  21.02
1718.6  30484.31  6343.01  20.81
1722.2  30333.58  6246.35  20.59
1725.9  30181.80  6155.56  20.39
1729.5  30037.98  6077.31  20.23
1733.1  29910.73  6020.69  20.13
1736.7  29788.38  5976.71  20.06
1740.3  29614.18  5918.05  19.98
1744.0  29528.30  5861.42  19.85
1747.5  29373.44  5779.05  19.67
1751.2  29138.63  5677.86  19.49
1754.8  28975.37  5590.44  19.29
1758.4  28834.48  5513.39  19.12
1762.0  28639.33  5427.81  18.95
1765.5  28498.38  5368.88  18.84
1769.1  28452.00  5339.20  18.77
1772.7  28378.96  5299.57  18.67
1776.3  28252.73  5250.39  18.58
1779.9  28119.54  5203.14  18.50
1783.5  28061.20  5170.80  18.43
1787.0  27938.82  5132.11  18.37
1790.6  27774.17  5091.47  18.33
1794.2  27666.21  5061.24  18.29
1797.8  27558.84  5037.91  18.28
1801.3  27465.68  5024.13  18.29
1804.9  27315.75  4998.00  18.30
1808.4  27221.13  4982.13  18.30
1812.0  27071.27  4955.78  18.31
1815.5  26907.62  4919.67  18.28
1819.1  26703.43  4879.71  18.27
1822.6  26545.43  4851.37  18.28
1826.2  26400.51  4817.00  18.25
1829.7  26207.46  4768.18  18.19
1833.2  25952.41  4707.68  18.14
1836.8  25712.51  4651.16  18.09
1840.3  25567.16  4609.95  18.03
1843.8  25454.03  4563.04  17.93
1847.3  25371.56  4518.98  17.81
1850.8  25264.51  4472.83  17.70
1854.3  25105.60  4398.59  17.52
1857.8  25027.60  4295.20  17.16
1861.3  25027.70  4165.34  16.64
1864.8  24948.54  3991.86  16.00
1868.3  24715.93  3750.85  15.18
1871.8  24529.92  3494.40  14.25
1875.3  24489.01  3243.55  13.24
1878.8  24485.84  3008.53  12.29
1882.3  24423.29  2791.16  11.43
1885.8  24245.59  2583.31  10.65
1889.3  24030.42  2410.55  10.03
1892.7  23852.68  2266.63  9.50
1896.2  23673.74  2180.22  9.21
1899.7  23427.69  2140.71  9.14
1903.1  23323.61  2121.50  9.10
1906.6  23396.53  2225.18  9.51
1910.0  23683.33  2439.22  10.30
1913.5  24138.15  2728.42  11.30
1917.0  24628.98  3187.86  12.94
1920.4  25146.40  3713.41  14.77
1923.8  25520.19  4009.54  15.71
1871.2  22263.77  2396.17  10.76
1873.9  22507.55  2290.84  10.18
1876.7  22626.01  2176.73  9.62
1879.5  22737.83  2005.17  8.82
1882.3  22382.76  1840.42  8.22
1885.1  22317.18  1715.38  7.69
1887.8  22505.15  1602.60  7.12
1890.6  22306.26  1489.16  6.68
1893.4  22256.67  1405.56  6.32
1896.2  22163.50  1338.66  6.04
1898.9  22083.42  1273.96  5.77
1901.7  21937.94  1224.65  5.58
1904.5  22143.94  1218.46  5.50
1907.2  22059.00  1212.83  5.50
1910.0  21927.95  1200.44  5.47
1912.7  21918.25  1175.64  5.36
1915.5  21816.04  1169.14  5.36
1918.2  21741.95  1174.89  5.40
1921.0  21589.30  1150.70  5.33
1923.7  21620.81  1158.36  5.36
1926.5  21581.93  1162.63  5.39
1929.2  21568.04  1150.13  5.33
1932.0  21551.20  1157.61  5.37
1934.7  21508.34  1151.66  5.35
1937.4  21385.99  1141.42  5.34
1940.2  21322.79  1160.70  5.44
1942.9  21412.44  1176.39  5.49
1945.6  21432.94  1172.77  5.47
1948.3  21347.13  1176.26  5.51
1951.1  21319.83  1187.95  5.57
1953.8  21321.00  1202.00  5.64
1956.5  21174.65  1210.98  5.72
1959.2  21255.91  1215.93  5.72
1961.9  21274.22  1219.81  5.73
1964.6  21161.18  1241.57  5.87
1967.3  21232.43  1255.89  5.91
1970.0  21063.36  1249.12  5.93
1972.8  20962.32  1266.88  6.04
1975.5  21019.32  1280.91  6.09
1978.2  20951.00  1280.91  6.11
1980.9  20833.51  1300.09  6.24
1983.5  20753.87  1307.78  6.30
1986.2  20730.84  1311.44  6.33
1988.9  20710.47  1342.48  6.48
1991.6  20560.54  1343.09  6.53
1994.3  20429.18  1348.85  6.60
1997.0  20463.02  1371.50  6.70
1999.7  20411.81  1383.19  6.78
2002.3  20392.69  1403.81  6.88
2005.0  20300.64  1407.65  6.93
2007.7  20215.73  1413.27  6.99
2010.4  20150.59  1426.55  7.08
2013.0  20054.41  1440.52  7.18
2015.7  19971.23  1443.57  7.23
2018.4  19850.99  1446.70  7.29
2021.0  19776.67  1457.28  7.37
2023.7  19665.12  1451.96  7.38
2026.4  19623.72  1459.03  7.44
2029.0  19549.52  1486.43  7.60
2031.7  19389.93  1478.75  7.63
2034.3  19392.75  1471.24  7.59
2037.0  19277.12  1495.71  7.76
2039.6  19203.81  1502.32  7.82
2042.3  19169.68  1498.71  7.82
2044.9  19085.22  1510.03  7.91
2047.5  19057.17  1510.96  7.93
2050.2  18939.20  1490.53  7.87
2052.8  18894.40  1512.00  8.00
2055.4  18768.37  1522.24  8.11
2058.1  18622.80  1510.13  8.11
2060.7  18569.98  1525.14  8.21
2063.3  18475.60  1529.88  8.28
2065.9  18427.79  1527.04  8.29
2068.6  18352.42  1528.90  8.33
2071.2  18299.61  1533.57  8.38
2073.8  18217.15  1532.56  8.41
2076.4  18153.52  1542.73  8.50
2079.0  18135.74  1558.61  8.59
2081.6  18151.63  1570.78  8.65
2084.2  18112.28  1567.91  8.66
2086.8  17948.60  1573.50  8.77
2089.4  17865.33  1573.40  8.81
2092.1  17782.00  1577.22  8.87
2094.7  17712.75  1584.83  8.95
2097.2  17685.67  1582.89  8.95
2099.8  17677.80  1604.57  9.08
2102.4  17557.58  1601.74  9.12
2105.0  17419.20  1589.35  9.12
2107.6  17352.05  1610.26  9.28
2110.2  17317.12  1620.70  9.36
2112.8  17308.85  1608.24  9.29
2115.3  17299.79  1627.12  9.41
2117.9  17305.54  1628.80  9.41
2120.5  17283.04  1634.35  9.46
2123.1  17169.75  1660.43  9.67
2125.6  17130.75  1649.63  9.63
2128.2  17041.98  1637.96  9.61
2130.8  16938.68  1662.38  9.81
2133.3  16907.73  1668.09  9.87
2135.9  16811.63  1661.06  9.88
2138.4  16669.29  1665.85  9.99
2141.0  16557.51  1653.31  9.99
2143.6  16519.94  1657.37  10.03
2146.1  16331.26  1649.38  10.10
2148.7  16166.35  1638.66  10.14
2151.2  16200.80  1664.18  10.27
2153.8  16223.65  1680.64  10.36
2156.3  16092.71  1668.63  10.37
2158.8  16012.97  1652.88  10.32
2161.4  15977.02  1667.77  10.44
2163.9  15879.72  1666.79  10.50
2166.4  15806.34  1652.78  10.46
2169.0  15776.77  1663.62  10.54
2171.5  15691.03  1658.69  10.57
2174.0  15580.08  1647.16  10.57
2176.5  15568.93  1653.47  10.62
2179.1  15528.15  1662.44  10.71
2181.6  15436.46  1647.57  10.67
2184.1  15393.84  1650.88  10.72
2186.6  15412.36  1661.23  10.78
2189.1  15330.96  1645.66  10.73
2191.6  15265.13  1663.82  10.90
2194.1  15289.63  1671.91  10.93
2196.6  15291.79  1660.97  10.86
2199.2  15355.64  1691.84  11.02
2201.7  15282.97  1688.16  11.05
2204.1  15217.08  1655.36  10.88
2206.6  15263.16  1669.80  10.94
2209.1  15196.78  1679.28  11.05
2211.6  15154.34  1676.20  11.06
2214.1  15142.04  1680.34  11.10
2216.6  15136.36  1668.73  11.02
2219.1  15121.17  1666.20  11.02
2221.6  15017.30  1672.39  11.14
2224.0  14973.30  1640.84  10.96
2226.5  14953.65  1603.18  10.72
2229.0  14990.65  1619.10  10.80
2231.5  14856.57  1614.98  10.87
2233.9  14819.93  1591.93  10.74
2236.4  14830.12  1595.47  10.76
2238.9  14725.00  1575.84  10.70
2241.3  14738.24  1555.96  10.56
2243.8  14703.26  1553.37  10.56
2246.2  14560.76  1506.73  10.35
2248.7  14543.49  1470.68  10.11
2251.2  14547.02  1477.12  10.15
2253.6  14461.44  1477.12  10.21
2256.1  14411.52  1445.12  10.03
2258.5  14448.51  1435.50  9.94
2260.9  14358.24  1408.72  9.81
2263.4  14286.28  1370.29  9.59
2265.8  14286.52  1386.08  9.70
2268.3  14242.68  1362.31  9.56
2270.7  14293.95  1338.30  9.36
2273.1  14208.68  1314.13  9.25
2275.6  14138.88  1294.08  9.15
2278.0  14162.68  1291.36  9.12
2280.4  14119.54  1269.95  8.99
2282.8  13992.20  1258.29  8.99
2285.3  14040.77  1245.56  8.87
2287.7  14128.29  1248.30  8.84
2290.1  13998.75  1241.35  8.87
2292.5  13976.47  1230.18  8.80
2294.9  14012.61  1207.89  8.62
2297.3  13889.96  1173.32  8.45
2299.7  13787.58  1147.65  8.32
2302.1  13749.17  1133.98  8.25
2304.5  13602.40  1121.12  8.24
2306.9  13496.56  1083.23  8.03
2309.3  13451.64  1073.63  7.98
2311.7  13329.30  1072.84  8.05
2314.1  13154.03  1039.72  7.90
2316.5  13124.14  1050.67  8.01
2318.9  13145.46  1066.88  8.12
2321.3  13101.23  1061.73  8.10
2323.7  13118.10  1087.52  8.29
2326.1  13081.38  1082.73  8.28
2328.4  13108.17  1050.99  8.02
2330.8  13202.52  1056.58  8.00
2333.2  13104.54  1035.07  7.90
2335.6  13023.78  1007.47  7.74
2337.9  13062.53  1009.95  7.73
2340.3  13002.24  997.80  7.67
2342.7  12902.35  984.57  7.63
2345.0  12884.39  997.97  7.75
2347.4  12860.50  981.75  7.63
2349.7  12661.22  945.47  7.47
2352.1  12633.43  952.01  7.54
2354.4  12658.59  945.63  7.47
2356.8  12578.77  936.71  7.45
2359.2  12527.67  925.89  7.39
2361.5  12479.13  927.94  7.44
2363.8  12494.29  912.00  7.30
2366.2  12489.73  901.79  7.22
2368.5  12451.10  901.87  7.24
2370.9  12453.76  897.65  7.21
2373.2  12415.30  887.34  7.15
2375.5  12276.33  876.34  7.14
2377.9  12211.78  876.72  7.18
2380.2  12242.21  885.79  7.24
2382.5  12139.99  871.52  7.18
2384.8  12068.64  846.03  7.01
2387.2  12086.52  843.90  6.98
2389.5  12068.58  831.02  6.89
2391.8  12016.43  815.99  6.79
2394.1  11909.46  807.72  6.78
2396.4  11863.59  819.29  6.91
2398.7  11940.46  808.70  6.77
2401.0  11823.50  799.44  6.76
2403.3  11693.04  796.80  6.81
2405.6  11741.09  774.74  6.60
2407.9  11668.29  766.53  6.57
2410.2  11575.79  765.37  6.61
2412.5  11525.22  748.70  6.50
2414.8  11512.67  761.69  6.62
2417.1  11505.36  767.37  6.67
2419.4  11477.63  731.14  6.37
2421.7  11364.91  718.41  6.32
2424.0  11316.90  711.49  6.29
2426.2  11347.35  690.15  6.08
2428.5  11281.78  713.90  6.33
2430.8  11243.35  704.87  6.27
2433.1  11179.50  665.65  5.95
2435.4  11100.48  684.46  6.17
2437.6  11066.91  684.46  6.18
2439.9  10932.41  651.34  5.96
2442.2  10967.11  656.06  5.98
2444.4  10975.51  670.05  6.10
2446.7  10909.12  665.76  6.10
2448.9  10931.40  669.15  6.12
2451.2  10853.16  625.80  5.77
2453.4  10787.73  598.65  5.55
2455.7  10721.98  610.19  5.69
2457.9  10647.12  602.36  5.66
2460.2  10665.45  595.95  5.59
2462.4  10576.80  603.20  5.70
2464.7  10503.38  571.96  5.45
2466.9  10471.02  569.24  5.44
2469.2  10480.86  604.96  5.77
2471.4  10359.57  562.40  5.43
2473.6  10250.05  537.83  5.25
2475.9  10220.96  571.22  5.59
2478.1  10124.53  530.59  5.24
2480.3  10080.49  498.92  4.95
2482.5  10057.71  543.27  5.40
2484.8  9961.32  565.54  5.68
2487.0  9924.93  516.00  5.20
2489.2  9935.52  507.58  5.11
2491.4  9875.23  522.58  5.29
2493.6  9884.14  519.94  5.26
2495.8  9866.24  530.53  5.38
2498.0  9849.60  502.62  5.10
2500.2  9865.68  502.69  5.10
2502.4  10096.56  526.88  5.22
2504.6  10244.49  550.88  5.38
2506.8  10345.65  581.26  5.62
