/*** Spectra Vista SIG Data ***/
name= B.sig
comm= Resampled spectral data SIG file reprocesed for matching/overlap;Averaged Ref/Tar of files: RD3B1,RD3B2,RD3B3
data=
346.0  598.78  166.68  27.84
356.0  924.17  194.90  21.09
366.0  1234.61  215.23  17.43
376.0  1691.57  237.34  14.03
386.0  2110.32  237.82  11.27
396.0  2699.64  294.49  10.91
406.0  3258.06  290.56  8.92
416.0  3980.12  355.64  8.94
426.0  4560.62  386.59  8.48
436.0  5560.57  443.51  7.98
446.0  6459.13  515.33  7.98
456.0  7345.42  570.35  7.76
466.0  8824.96  681.78  7.73
476.0  10121.58  769.52  7.60
486.0  10943.49  806.94  7.37
496.0  12761.25  962.40  7.54
506.0  14311.81  1164.52  8.14
516.0  15112.04  1359.75  9.00
526.0  16957.18  1654.57  9.76
536.0  19355.60  2000.63  10.34
546.0  21330.59  2309.81  10.83
556.0  21581.55  2480.43  11.49
566.0  23226.44  2913.81  12.55
576.0  25810.52  3640.88  14.11
586.0  27755.51  4530.22  16.32
596.0  29194.08  5516.12  18.89
606.0  29534.45  6346.13  21.49
616.0  31318.23  7396.51  23.62
626.0  34410.58  8503.17  24.71
636.0  34069.21  9351.26  27.45
646.0  34679.65  8958.98  25.83
656.0  34069.42  7768.10  22.80
666.0  35802.93  7099.76  19.83
676.0  37841.78  6928.02  18.31
686.0  40854.13  10030.55  24.55
696.0  41747.28  18132.33  43.43
706.0  41971.06  24831.74  59.16
716.0  41223.34  27998.77  67.92
726.0  40067.78  29186.57  72.84
736.0  39511.29  29633.03  75.00
746.0  41985.01  32158.37  76.59
756.0  42844.63  33039.50  77.11
766.0  44461.06  34835.22  78.35
776.0  45318.27  35902.28  79.22
786.0  45304.05  36354.37  80.25
796.0  44083.17  35659.66  80.89
806.0  42558.06  34823.72  81.83
816.0  42205.19  34791.70  82.43
826.0  41881.04  34291.02  81.88
836.0  42513.48  34386.04  80.88
846.0  43677.73  35263.89  80.74
856.0  44639.93  35943.41  80.52
866.0  45173.91  36324.63  80.41
876.0  45452.84  36388.27  80.06
886.0  45709.40  36131.89  79.05
896.0  45235.90  35308.90  78.06
906.0  45023.00  34662.19  76.99
916.0  44495.20  33657.96  75.64
926.0  44269.25  32391.36  73.17
936.0  45413.73  31537.31  69.44
946.0  46396.61  30328.54  65.37
956.0  47429.46  28698.93  60.51
966.0  48326.20  28110.89  58.17
976.0  49108.57  28072.55  57.16
986.0  50490.65  27487.87  54.44
996.0  50607.35  28474.24  56.27
1006.0  50486.13  29239.10  57.92
1016.0  50803.76  30399.88  59.84
1026.0  50772.47  31444.63  61.93
1036.0  50488.61  32275.45  63.93
1046.0  50910.83  33476.63  65.76
1056.0  51254.42  34435.91  67.19
1066.0  51336.62  34875.88  67.94
1076.0  51162.22  34817.09  68.05
1086.0  51303.09  34602.78  67.45
1096.0  51344.30  34025.73  66.27
1106.0  51211.90  33192.23  64.81
1116.0  50831.30  32071.57  63.09
1126.0  50674.44  30540.86  60.27
1136.0  50616.91  27922.89  55.17
1146.0  50531.75  24888.30  49.25
1156.0  50358.44  22994.42  45.66
1166.0  50175.54  22208.01  44.26
1176.0  50092.24  21854.43  43.63
1186.0  50160.75  21626.31  43.11
1196.0  49589.85  21201.54  42.75
1206.0  49136.73  21027.82  42.79
1216.0  48856.16  21080.01  43.15
1226.0  48538.40  21243.21  43.77
1236.0  48332.55  21457.82  44.40
1246.0  48044.92  21560.80  44.88
1256.0  47756.51  21578.48  45.18
1266.0  47442.71  21517.17  45.35
1276.0  47551.66  21461.35  45.13
1286.0  47606.03  21203.19  44.54
1296.0  47326.24  20605.45  43.54
1306.0  46758.50  19662.40  42.05
1316.0  46095.57  18492.87  40.12
1326.0  45453.96  17151.78  37.73
1336.0  44765.54  15798.20  35.29
1346.0  44091.89  14570.82  33.05
1356.0  43065.01  13410.04  31.14
1366.0  42453.65  12388.63  29.18
1376.0  42338.17  11256.16  26.59
1386.0  41985.88  9441.60  22.49
1396.0  41548.36  7514.28  18.09
1406.0  41106.41  6098.51  14.84
1416.0  41061.27  5313.78  12.94
1426.0  40954.01  4910.56  11.99
1436.0  40796.14  4716.35  11.56
1446.0  40594.32  4627.99  11.40
1456.0  40330.62  4592.48  11.39
1466.0  40125.74  4634.57  11.55
1476.0  39754.25  4764.30  11.98
1486.0  39484.92  5016.92  12.71
1496.0  39151.21  5333.30  13.62
1506.0  38800.67  5542.05  14.28
1516.0  38385.61  5704.65  14.86
1526.0  38038.86  5929.49  15.59
1536.0  37757.73  6117.00  16.20
1546.0  37407.06  6326.43  16.91
1556.0  37137.95  6557.57  17.66
1566.0  36823.70  6771.56  18.39
1576.0  36372.01  6972.02  19.17
1586.0  36009.48  7116.12  19.76
1596.0  35619.37  7206.16  20.23
1606.0  35232.08  7312.38  20.75
1616.0  34829.65  7398.45  21.24
1626.0  34452.68  7480.51  21.71
1636.0  34007.58  7518.68  22.11
1646.0  33523.68  7520.78  22.43
1656.0  33037.62  7473.11  22.62
1666.0  32548.04  7377.80  22.67
1676.0  32123.29  7261.08  22.60
1686.0  32117.51  7175.50  22.34
1696.0  31764.57  6989.34  22.00
1706.0  31316.98  6743.82  21.53
1716.0  30611.05  6416.34  20.96
1726.0  30177.81  6153.39  20.39
1736.0  29812.17  5985.26  20.08
1746.0  29439.81  5814.35  19.75
1756.0  28928.41  5564.76  19.24
1766.0  28491.94  5364.76  18.83
1776.0  28263.25  5254.49  18.59
1786.0  27973.79  5143.16  18.39
1796.0  27612.53  5049.58  18.29
1806.0  27286.01  4993.01  18.30
1816.0  26879.26  4914.12  18.28
1826.0  26408.56  4818.91  18.25
1836.0  25765.82  4663.72  18.10
1846.0  25402.19  4535.35  17.85
1856.0  25067.72  4348.37  17.35
1866.0  24868.79  3909.23  15.72
1876.0  24488.38  3196.55  13.05
1886.0  24233.30  2573.44  10.62
1896.0  23683.96  2185.16  9.23
1906.0  22096.75  1215.33  5.50
1916.0  21802.32  1170.20  5.37
1926.0  21588.87  1161.87  5.38
1936.0  21449.43  1146.73  5.35
1946.0  21420.23  1173.29  5.48
1956.0  21201.75  1209.32  5.70
1966.0  21198.12  1249.00  5.89
1976.0  21006.67  1280.91  6.10
1986.0  20732.55  1311.17  6.32
1996.0  20450.49  1363.11  6.67
2006.0  20269.19  1409.73  6.96
2016.0  19957.87  1443.92  7.23
2026.0  19629.85  1457.98  7.43
2036.0  19319.95  1486.65  7.69
2046.0  19073.35  1510.42  7.92
2056.0  18736.02  1519.55  8.11
2066.0  18425.00  1527.11  8.29
2076.0  18163.31  1541.17  8.49
2086.0  17998.96  1571.78  8.73
2096.0  17698.67  1583.82  8.95
2106.0  17393.37  1597.39  9.18
2116.0  17301.34  1627.57  9.41
2126.0  17117.10  1647.83  9.63
2136.0  16805.93  1661.25  9.88
2146.0  16338.81  1649.70  10.10
2156.0  16108.43  1670.07  10.37
2166.0  15818.08  1655.02  10.46
2176.0  15571.16  1652.21  10.61
2186.0  15407.91  1658.75  10.77
2196.0  15291.27  1663.60  10.88
2206.0  15252.10  1666.33  10.93
2216.0  15137.72  1671.52  11.04
2226.0  14957.58  1610.71  10.77
2236.0  14828.49  1594.90  10.76
2246.0  14572.63  1510.62  10.37
2256.0  14413.52  1446.40  10.04
2266.0  14283.01  1384.18  9.69
2276.0  14142.85  1293.63  9.15
2286.0  14066.30  1246.36  8.86
2296.0  13956.39  1192.04  8.54
2306.0  13536.25  1097.44  8.11
2316.0  13130.37  1048.39  7.98
2326.0  13082.91  1082.93  8.28
2336.0  13030.52  1007.90  7.73
2346.0  12874.44  991.21  7.70
2356.0  12605.38  939.68  7.45
2366.0  12490.11  902.64  7.23
2376.0  12262.88  876.42  7.15
2386.0  12077.58  844.97  7.00
2396.0  11871.57  817.28  6.88
2406.0  11728.43  773.31  6.59
2416.0  11508.86  764.65  6.64
2426.0  11344.58  692.09  6.10
2436.0  11091.32  684.46  6.17
2446.0  10929.32  667.07  6.10
2456.0  10711.77  609.12  5.69
2466.0  10484.26  570.35  5.44
2476.0  10216.57  569.37  5.57
2486.0  9941.47  538.52  5.42
2496.0  9864.73  527.99  5.35
2506.0  10308.86  570.21  5.53
