/*** Spectra Vista SIG Data ***/
name= RB.sig
comm= SIG file reprocesed for matching/overlap;Averaged Ref/Tar of files: RB1,RB2,RB3
data=
346.4  468.20  131.01  27.98
347.9  473.76  130.84  27.62
349.5  521.04  139.36  26.75
351.1  558.48  134.58  24.10
352.6  585.06  141.68  24.22
354.2  625.05  141.92  22.71
355.7  673.50  151.20  22.45
357.3  724.71  158.35  21.85
358.8  751.43  155.88  20.74
360.4  798.47  162.51  20.35
361.9  821.87  162.40  19.76
363.5  851.78  168.74  19.81
365.1  887.68  169.56  19.10
366.6  918.37  168.94  18.40
368.2  973.68  174.81  17.95
369.7  1008.89  167.93  16.65
371.3  1073.36  166.93  15.55
372.8  1148.72  169.98  14.80
374.4  1191.49  174.89  14.68
375.9  1247.87  180.29  14.45
377.4  1278.23  181.93  14.23
379.0  1330.29  181.30  13.63
380.5  1360.26  182.09  13.39
382.1  1412.49  181.54  12.85
383.6  1460.03  179.17  12.27
385.2  1529.00  174.26  11.40
386.7  1608.26  175.63  10.92
388.3  1679.42  187.60  11.17
389.8  1759.55  192.97  10.97
391.3  1843.67  198.10  10.74
392.9  1897.62  201.71  10.63
394.4  1955.58  215.14  11.00
395.9  2019.02  225.35  11.16
397.5  2131.80  236.76  11.11
399.0  2240.25  236.08  10.54
400.6  2303.62  228.57  9.92
402.1  2342.64  224.72  9.59
403.6  2375.92  220.89  9.30
405.1  2451.81  217.08  8.85
406.7  2542.40  225.94  8.89
408.2  2650.73  232.26  8.76
409.7  2746.24  241.99  8.81
411.3  2843.51  247.79  8.71
412.8  2936.43  258.57  8.81
414.3  3034.90  266.13  8.77
415.8  3152.50  275.67  8.74
417.4  3253.58  283.95  8.73
418.9  3339.60  291.29  8.72
420.4  3424.70  296.94  8.67
421.9  3487.22  301.05  8.63
423.5  3546.87  299.58  8.45
425.0  3613.98  305.43  8.45
426.5  3695.85  308.53  8.35
428.0  3801.23  310.61  8.17
429.5  3926.30  315.60  8.04
431.1  4071.24  321.99  7.91
432.6  4225.66  335.80  7.95
434.1  4373.60  345.54  7.90
435.6  4514.36  357.26  7.91
437.1  4642.95  361.08  7.78
438.6  4769.06  371.19  7.78
440.1  4906.69  382.03  7.79
441.6  5042.30  392.02  7.77
443.1  5179.95  402.77  7.78
444.7  5318.34  412.92  7.76
446.2  5433.01  423.95  7.80
447.7  5551.25  434.31  7.82
449.2  5676.48  445.03  7.84
450.7  5788.64  452.61  7.82
452.2  5916.62  453.53  7.67
453.7  6028.91  461.96  7.66
455.2  6201.73  472.20  7.61
456.7  6390.56  485.11  7.59
458.2  6607.30  501.01  7.58
459.7  6823.25  516.89  7.58
461.2  7031.76  527.68  7.50
462.7  7219.07  539.63  7.48
464.2  7396.86  557.54  7.54
465.7  7583.22  569.20  7.51
467.2  7742.35  581.03  7.50
468.7  7912.00  594.87  7.52
470.2  8015.91  605.79  7.56
471.7  8177.13  625.10  7.64
473.2  8446.52  640.72  7.59
474.6  8688.33  651.29  7.50
476.1  8747.12  645.82  7.38
477.6  8779.39  639.97  7.29
479.1  8829.54  638.81  7.23
480.6  8916.06  643.64  7.22
482.1  9046.91  649.13  7.18
483.6  9204.08  656.14  7.13
485.1  9394.00  667.31  7.10
486.6  9626.34  681.62  7.08
488.0  9867.00  699.24  7.09
489.5  10130.90  714.80  7.06
491.0  10387.73  734.01  7.07
492.5  10649.88  754.16  7.08
494.0  10928.34  776.52  7.11
495.4  11158.95  799.59  7.17
496.9  11406.10  819.64  7.19
498.4  11649.48  837.79  7.19
499.9  11878.23  862.01  7.26
501.4  12101.58  883.20  7.30
502.8  12308.24  901.44  7.32
504.3  12497.40  923.82  7.39
505.8  12681.02  942.87  7.44
507.2  12808.72  961.44  7.51
508.7  12896.48  973.47  7.55
510.2  12964.78  990.57  7.64
511.6  13008.39  999.55  7.68
513.1  13093.74  1014.29  7.75
514.6  13195.49  1027.11  7.78
516.0  13281.41  1037.35  7.81
517.5  13429.99  1054.49  7.85
519.0  13603.01  1075.62  7.91
520.5  13772.72  1091.47  7.92
521.9  13993.28  1116.34  7.98
523.4  14243.35  1137.82  7.99
524.8  14493.24  1163.86  8.03
526.3  14778.04  1192.53  8.07
527.8  15074.01  1220.76  8.10
529.2  15339.71  1247.48  8.13
530.7  15629.94  1272.67  8.14
532.1  15903.48  1299.91  8.17
533.6  16214.37  1329.96  8.20
535.0  16534.98  1361.98  8.24
536.5  16856.03  1392.91  8.26
538.0  17178.24  1426.00  8.30
539.4  17501.02  1458.51  8.33
540.9  17879.62  1494.93  8.36
542.3  18237.67  1528.76  8.38
543.8  18504.51  1557.17  8.42
545.2  18600.74  1572.59  8.45
546.6  18637.00  1581.32  8.48
548.1  18690.38  1595.17  8.53
549.5  18745.60  1606.73  8.57
551.0  18790.92  1622.42  8.63
552.4  18868.34  1641.16  8.70
553.9  18922.09  1655.99  8.75
555.3  18999.63  1678.25  8.83
556.8  19143.87  1704.87  8.91
558.2  19276.31  1732.16  8.99
559.6  19441.66  1764.98  9.08
561.1  19660.88  1803.48  9.17
562.5  19883.82  1846.24  9.29
564.0  20177.05  1899.41  9.41
565.4  20444.07  1951.79  9.55
566.8  20774.24  2015.46  9.70
568.3  21077.79  2078.90  9.86
569.7  21403.31  2145.61  10.02
571.1  21706.83  2217.86  10.22
572.6  22010.94  2291.44  10.41
574.0  22299.75  2365.22  10.61
575.4  22570.31  2448.79  10.85
576.9  22820.49  2531.82  11.09
578.3  23040.88  2618.21  11.36
579.7  23243.15  2706.94  11.65
581.1  23410.31  2795.04  11.94
582.6  23592.46  2887.73  12.24
584.0  23735.52  2982.49  12.57
585.4  23971.18  3097.62  12.92
586.8  24286.87  3224.31  13.28
588.3  24642.54  3360.86  13.64
589.7  24935.04  3495.26  14.02
591.1  25126.37  3620.31  14.41
592.5  25213.30  3721.21  14.76
594.0  25248.06  3817.29  15.12
595.4  25246.58  3911.07  15.49
596.8  25248.80  4009.86  15.88
598.2  25256.70  4101.56  16.24
599.6  25254.00  4192.72  16.60
601.0  25321.45  4293.50  16.96
602.4  25392.58  4394.77  17.31
603.9  25508.50  4495.90  17.63
605.3  25652.08  4595.15  17.91
606.7  25770.60  4685.16  18.18
608.1  26003.60  4789.23  18.42
609.5  26249.20  4893.36  18.64
610.9  26543.12  5000.22  18.84
612.3  26820.62  5101.40  19.02
613.7  27191.20  5213.29  19.17
615.1  27470.34  5306.20  19.32
616.5  27748.85  5403.93  19.47
617.9  28163.94  5524.62  19.62
619.3  28559.37  5645.16  19.77
620.7  29021.55  5781.48  19.92
622.1  29524.34  5927.76  20.08
623.5  30070.32  6085.10  20.24
624.9  30686.25  6277.09  20.46
626.3  31117.56  6446.01  20.72
627.7  30854.43  6491.84  21.04
629.1  30617.27  6555.44  21.41
630.5  30534.25  6652.71  21.79
631.9  30583.88  6731.83  22.01
633.3  30636.73  6776.32  22.12
634.7  30802.72  6819.15  22.14
636.1  30887.16  6822.52  22.09
637.5  30991.21  6822.16  22.01
638.9  31137.59  6798.96  21.84
640.2  31275.86  6714.67  21.47
641.6  31334.94  6573.84  20.98
643.0  31307.82  6399.90  20.44
644.4  31297.86  6222.05  19.88
645.8  31223.60  6034.04  19.33
647.2  31327.01  5889.06  18.80
648.5  31378.61  5734.61  18.28
649.9  31215.99  5581.48  17.88
651.3  31061.55  5461.08  17.58
652.7  30880.50  5393.25  17.46
654.1  30705.72  5325.65  17.34
655.5  30448.41  5240.67  17.21
656.8  30219.54  5131.87  16.98
658.2  30347.48  5075.57  16.72
659.6  30667.01  5027.89  16.40
660.9  30915.41  4961.30  16.05
662.3  31175.28  4871.00  15.62
663.7  31418.10  4787.16  15.24
665.0  31622.76  4691.66  14.84
666.4  31821.65  4606.46  14.48
667.8  32088.83  4542.10  14.15
669.1  32304.87  4488.50  13.89
670.5  32567.66  4457.82  13.69
671.9  32723.64  4427.14  13.53
673.2  32957.22  4429.68  13.44
674.6  33165.65  4449.69  13.42
676.0  33416.99  4493.04  13.45
677.3  33670.84  4572.13  13.58
678.7  33959.63  4688.46  13.81
680.0  34360.72  4850.68  14.12
681.4  34770.40  5087.98  14.63
682.8  35166.95  5390.23  15.33
684.1  35575.02  5792.05  16.28
685.5  35948.61  6293.27  17.51
686.8  36307.14  6906.37  19.02
688.2  36654.12  7629.29  20.81
689.5  36792.82  8413.54  22.87
690.9  36894.22  9276.82  25.14
692.2  37000.50  10200.26  27.57
693.6  37086.31  11162.81  30.10
694.9  37102.94  12118.52  32.66
696.2  37172.03  13099.91  35.24
697.6  37238.58  14072.15  37.79
698.9  37321.68  15025.82  40.26
700.3  37412.04  15961.17  42.66
701.6  37521.51  16872.79  44.97
703.0  37648.39  17741.03  47.12
704.3  37727.46  18528.37  49.11
705.6  37779.39  19265.33  50.99
707.0  37853.11  19961.71  52.73
708.3  37804.36  20560.72  54.39
709.6  37779.31  21122.86  55.91
711.0  37700.05  21617.97  57.34
712.3  37603.29  22063.36  58.67
713.6  37599.66  22526.67  59.91
714.9  37564.50  22936.17  61.06
716.3  37606.65  23382.47  62.18
717.6  37655.10  23810.81  63.23
718.9  37643.31  24159.01  64.18
720.2  37519.65  24402.57  65.04
721.6  37437.79  24654.54  65.85
722.9  37295.06  24855.10  66.64
724.2  37099.21  24973.97  67.32
725.5  36957.59  25121.55  67.97
726.8  36833.83  25224.92  68.48
728.1  36764.75  25346.38  68.94
729.5  36694.32  25449.71  69.36
730.8  36660.60  25551.46  69.70
732.1  36590.42  25613.29  70.00
733.4  36549.03  25698.02  70.31
734.7  36509.02  25750.61  70.53
736.0  36510.50  25837.44  70.77
737.3  36452.29  25885.63  71.01
738.6  36538.42  26031.76  71.24
739.9  36706.85  26231.50  71.46
741.2  36841.35  26392.82  71.64
742.5  37078.82  26622.77  71.80
743.8  37494.19  26970.31  71.93
745.1  38118.44  27466.90  72.06
746.4  38876.11  28060.17  72.18
747.7  39639.96  28710.25  72.43
749.0  40400.48  29371.29  72.70
750.3  40850.46  29799.23  72.95
751.6  40764.46  29862.39  73.26
752.9  40356.61  29642.09  73.45
754.2  39863.99  29350.23  73.63
755.4  39350.05  29006.31  73.71
756.7  39155.03  28886.65  73.78
758.0  39142.09  28916.10  73.87
759.3  39351.46  29117.21  73.99
760.6  39645.76  29401.47  74.16
761.9  39928.94  29668.62  74.30
763.1  40078.15  29816.27  74.40
764.4  40287.45  30000.27  74.47
765.7  40433.25  30140.72  74.54
767.0  40515.07  30260.26  74.69
768.2  40595.52  30383.58  74.84
769.5  40644.33  30474.53  74.98
770.8  40787.04  30632.42  75.10
772.0  40799.41  30690.72  75.22
773.3  40833.29  30787.73  75.40
774.6  40907.98  30898.95  75.53
775.8  40955.53  30998.83  75.69
777.1  40964.33  31036.64  75.77
778.4  40867.87  31026.63  75.92
779.6  40816.98  31036.52  76.04
780.9  40688.00  31020.93  76.24
782.1  40484.72  30922.22  76.38
783.4  40464.32  30958.86  76.51
784.6  40463.12  30979.07  76.56
785.9  40670.74  31176.44  76.66
787.1  41171.80  31604.90  76.76
788.4  41528.97  32019.88  77.10
789.6  41482.13  32131.13  77.46
790.9  41134.16  31955.19  77.69
792.1  40655.28  31635.74  77.81
793.4  40180.32  31321.06  77.95
794.6  39846.60  31136.87  78.14
795.8  39587.54  30983.28  78.27
797.1  39290.10  30790.06  78.37
798.3  39054.26  30666.85  78.52
799.5  38943.25  30605.42  78.59
800.8  38778.22  30540.26  78.76
802.0  38618.88  30466.46  78.89
803.2  38465.20  30390.07  79.01
804.5  38332.71  30333.01  79.13
805.7  38219.65  30280.25  79.23
806.9  38073.35  30197.29  79.31
808.1  37984.05  30159.84  79.40
809.4  37906.28  30147.15  79.53
810.6  37824.15  30096.13  79.57
811.8  37796.29  30092.08  79.62
813.0  37827.58  30113.39  79.61
814.2  37840.50  30153.85  79.69
815.4  37955.24  30254.09  79.71
816.6  38027.91  30311.32  79.71
817.9  38102.35  30377.81  79.73
819.1  38072.96  30345.74  79.70
820.3  37949.69  30255.36  79.72
821.5  37894.61  30200.77  79.70
822.7  37866.54  30163.54  79.66
823.9  37906.28  30157.94  79.56
825.1  37943.15  30158.05  79.48
826.3  38020.73  30152.21  79.30
827.5  38108.05  30147.95  79.11
828.7  38176.32  30152.39  78.98
829.9  38262.68  30138.87  78.77
831.0  38386.63  30163.88  78.58
832.2  38533.16  30200.49  78.38
833.4  38634.36  30226.05  78.24
834.6  38746.88  30250.32  78.07
835.8  38872.58  30288.51  77.92
837.0  39026.76  30355.31  77.78
838.1  39200.00  30473.74  77.74
839.3  39334.99  30528.41  77.61
840.5  39499.16  30601.00  77.47
841.7  39675.29  30708.26  77.40
842.9  39834.34  30809.35  77.34
844.0  40002.80  30892.88  77.23
845.2  40188.33  31000.32  77.14
846.4  40315.24  31101.40  77.15
847.5  40575.08  31259.77  77.04
848.7  40794.29  31419.80  77.02
849.9  41043.27  31582.77  76.95
851.0  41176.72  31664.50  76.90
852.2  41283.01  31736.30  76.87
853.3  41336.03  31747.81  76.80
854.5  41385.60  31757.30  76.74
855.6  41408.01  31762.82  76.71
856.8  41491.09  31797.48  76.64
857.9  41535.42  31789.86  76.54
859.1  41657.80  31874.41  76.51
860.2  41711.76  31866.39  76.40
861.4  41789.90  31897.99  76.33
862.5  41857.52  31930.40  76.28
863.7  41978.22  31988.84  76.20
864.8  42001.40  31994.26  76.17
865.9  42003.19  31933.22  76.03
867.1  42077.89  31954.54  75.94
868.2  42118.25  31978.26  75.92
869.3  42153.63  31969.26  75.84
870.5  42092.46  31899.91  75.79
871.6  42122.53  31889.94  75.71
872.7  42223.14  31919.69  75.60
873.9  42262.83  31916.21  75.52
875.0  42247.20  31857.38  75.41
876.1  42225.11  31821.08  75.36
877.2  42279.84  31796.29  75.20
878.3  42302.12  31750.88  75.06
879.4  42284.06  31735.91  75.05
880.5  42343.92  31712.40  74.89
881.7  42326.05  31665.25  74.81
882.8  42351.34  31672.76  74.79
883.9  42430.09  31660.40  74.62
885.0  42357.32  31610.06  74.63
886.1  42357.47  31587.36  74.57
887.2  42241.92  31440.78  74.43
888.3  42147.85  31355.05  74.39
889.4  42045.32  31228.22  74.27
890.5  41945.29  31107.17  74.16
891.6  41864.40  31031.69  74.12
892.7  41844.69  30956.93  73.98
893.8  41881.85  30932.31  73.86
894.9  41879.31  30884.05  73.75
896.0  41812.69  30815.60  73.70
897.0  41850.92  30788.85  73.57
898.1  41821.61  30727.08  73.47
899.2  41852.54  30698.09  73.35
900.3  41747.94  30586.36  73.26
901.4  41622.41  30491.37  73.26
902.4  41658.53  30461.84  73.12
903.5  41604.82  30364.74  72.98
904.6  41550.72  30334.00  73.00
905.7  41565.54  30284.06  72.86
906.7  41536.49  30215.36  72.74
907.8  41558.34  30179.75  72.62
908.9  41493.73  30062.71  72.45
909.9  41451.58  29993.66  72.36
911.0  41358.23  29890.64  72.27
912.1  41297.17  29770.55  72.09
913.1  41189.72  29672.27  72.04
914.2  41099.85  29525.71  71.84
915.2  41068.89  29440.53  71.69
916.3  41034.15  29366.44  71.57
917.3  40975.74  29268.29  71.43
918.4  40862.80  29126.62  71.28
919.4  40836.29  29024.68  71.08
920.5  40782.84  28903.69  70.87
921.5  40833.45  28824.70  70.59
922.6  40729.18  28652.61  70.35
923.6  40739.49  28573.69  70.14
924.7  40774.75  28459.55  69.80
925.7  40746.72  28323.60  69.51
926.7  40808.40  28211.91  69.13
927.8  40839.01  28111.50  68.83
928.8  40966.59  28072.35  68.52
929.9  41048.46  27981.76  68.17
930.9  41217.18  27961.08  67.84
931.9  41378.61  27940.94  67.53
932.9  41679.25  27966.86  67.10
934.0  41702.58  27854.84  66.79
935.0  41757.18  27693.98  66.32
936.0  41670.71  27502.12  66.00
937.0  41632.50  27297.44  65.57
938.1  41580.55  27111.17  65.20
939.1  41508.45  26925.61  64.87
940.1  41591.64  26806.74  64.45
941.1  41779.29  26784.18  64.11
942.1  41991.60  26751.31  63.71
943.1  42156.63  26671.72  63.27
944.1  42391.18  26630.03  62.82
945.2  42445.20  26457.51  62.33
946.2  42493.04  26329.59  61.96
947.2  42572.63  26192.71  61.52
948.2  42750.54  26074.11  60.99
949.2  42846.38  25916.39  60.49
950.2  42880.60  25768.17  60.09
951.2  42968.52  25599.28  59.58
952.2  43001.40  25429.90  59.14
953.2  43164.71  25316.20  58.65
954.2  43310.48  25209.42  58.21
955.2  43368.34  25029.61  57.71
956.2  43301.73  24867.45  57.43
957.2  43392.87  24741.49  57.02
958.2  43492.10  24640.09  56.65
959.2  43506.45  24565.97  56.47
960.1  43588.22  24490.08  56.19
961.1  43692.83  24403.58  55.85
962.1  43658.44  24360.38  55.80
963.1  43782.00  24346.44  55.61
964.1  43817.42  24335.54  55.54
965.1  43908.74  24350.91  55.46
966.1  44007.38  24327.02  55.28
967.0  44141.86  24344.78  55.15
968.0  44131.86  24315.14  55.10
969.0  44255.20  24349.63  55.02
970.0  44255.36  24340.08  55.00
971.0  44316.83  24333.62  54.91
971.9  44400.90  24342.56  54.82
972.9  44577.14  24336.71  54.59
973.9  44494.78  24382.69  54.80
974.9  44573.29  24451.12  54.86
975.8  44702.44  24496.94  54.80
976.8  44666.28  24475.96  54.80
977.8  44950.93  24586.56  54.70
978.8  44877.90  24641.99  54.91
979.7  45104.10  24675.24  54.71
981.4  47578.80  24832.04  52.19
985.3  47203.20  24890.95  52.73
989.3  47137.31  25095.25  53.24
993.3  47133.16  25316.18  53.71
997.2  47029.21  25490.32  54.20
1001.2  46955.35  25724.96  54.79
1005.2  46914.32  26007.02  55.44
1009.1  47038.13  26413.78  56.15
1013.1  47236.75  26882.26  56.91
1017.1  47375.30  27334.49  57.70
1021.0  47429.61  27724.75  58.45
1025.0  47461.87  28110.89  59.23
1029.0  47354.18  28408.90  59.99
1032.9  47271.77  28723.37  60.76
1036.9  47308.70  29106.60  61.52
1040.9  47476.08  29550.10  62.24
1044.8  47747.63  30022.26  62.88
1048.8  47970.59  30428.21  63.43
1052.7  48104.60  30770.74  63.97
1056.7  48183.46  31019.00  64.38
1060.7  48250.82  31205.23  64.67
1064.6  48272.17  31344.87  64.93
1068.6  48190.54  31376.11  65.11
1072.5  48116.11  31354.96  65.17
1076.5  48076.67  31310.62  65.13
1080.4  48048.88  31232.28  65.00
1084.4  48150.59  31172.48  64.74
1088.3  48279.53  31078.51  64.37
1092.3  48252.92  30857.17  63.95
1096.2  48221.83  30608.32  63.47
1100.2  48245.69  30373.85  62.96
1104.1  48124.97  30043.14  62.43
1108.1  48059.38  29743.73  61.89
1112.0  47955.87  29390.03  61.29
1116.0  47754.46  28945.83  60.61
1119.9  47569.76  28455.47  59.82
1123.9  47623.80  27984.38  58.76
1127.8  47592.96  27267.84  57.29
1131.8  47556.42  26342.34  55.39
1135.7  47568.82  25276.63  53.14
1139.6  47554.30  24125.92  50.73
1143.6  47510.71  23030.02  48.47
1147.5  47481.98  22084.82  46.51
1151.4  47337.52  21286.30  44.97
1155.4  47322.86  20775.41  43.90
1159.3  47329.81  20445.23  43.20
1163.2  47159.49  20153.32  42.73
1167.2  47113.86  19982.12  42.41
1171.1  47117.13  19866.16  42.16
1175.0  47022.16  19743.32  41.99
1179.0  46962.63  19626.19  41.79
1182.9  47045.30  19568.84  41.60
1186.8  47019.62  19476.51  41.42
1190.7  46784.64  19314.91  41.28
1194.7  46508.35  19162.91  41.20
1198.6  46264.68  19049.42  41.17
1202.5  46100.54  18975.12  41.16
1206.4  45962.62  18943.38  41.21
1210.3  45829.98  18955.93  41.36
1214.2  45707.13  18985.42  41.54
1218.2  45554.16  19022.69  41.76
1222.1  45384.95  19070.33  42.02
1226.0  45257.55  19146.31  42.31
1229.9  45156.00  19227.34  42.58
1233.8  45033.17  19276.52  42.81
1237.7  44950.68  19336.88  43.02
1241.6  44841.64  19383.51  43.23
1245.5  44683.61  19378.71  43.37
1249.4  44538.65  19379.65  43.51
1253.3  44401.40  19383.61  43.66
1257.2  44324.52  19398.29  43.76
1261.1  44209.48  19385.57  43.85
1265.0  44086.55  19328.79  43.84
1268.9  43910.05  19228.04  43.79
1272.8  43969.80  19227.05  43.73
1276.7  44155.69  19257.93  43.61
1280.6  44249.88  19215.70  43.43
1284.5  44188.89  19077.06  43.17
1288.4  44167.03  18938.93  42.88
1292.3  44060.50  18737.58  42.53
1296.2  43934.23  18493.20  42.09
1300.1  43787.98  18197.90  41.56
1303.9  43564.57  17846.42  40.97
1307.8  43339.22  17469.65  40.31
1311.7  43109.06  17060.01  39.57
1315.6  42877.90  16626.09  38.78
1319.5  42633.84  16168.39  37.92
1323.3  42417.44  15704.29  37.02
1327.2  42218.70  15241.96  36.10
1331.1  42002.86  14780.07  35.19
1335.0  41739.72  14307.02  34.28
1338.8  41543.11  13879.47  33.41
1342.7  41389.31  13486.99  32.59
1346.5  41042.00  13043.40  31.78
1350.4  40741.74  12637.81  31.02
1354.3  40332.24  12215.60  30.29
1358.1  39895.31  11808.89  29.60
1362.0  39644.33  11470.25  28.93
1365.8  39567.12  11168.46  28.23
1369.7  39683.68  10881.96  27.42
1373.5  39615.26  10462.69  26.41
1377.4  39354.79  9903.26  25.16
1381.2  39167.92  9274.98  23.68
1385.1  39160.09  8651.85  22.09
1389.0  39060.88  8004.71  20.49
1392.8  38834.72  7336.34  18.89
1396.6  38680.88  6738.16  17.42
1400.5  38476.57  6207.50  16.13
1404.3  38299.58  5764.45  15.05
1408.2  38263.03  5425.96  14.18
1412.0  38218.70  5154.94  13.49
1415.8  38249.29  4956.21  12.96
1419.6  38208.11  4792.39  12.54
1423.5  38172.20  4668.40  12.23
1427.3  38125.77  4578.59  12.01
1431.1  38099.78  4514.38  11.85
1434.9  38010.73  4459.44  11.73
1438.8  37949.80  4421.65  11.65
1442.6  37913.52  4396.74  11.60
1446.4  37795.09  4368.75  11.56
1450.2  37700.99  4359.31  11.56
1454.0  37583.52  4350.24  11.57
1457.8  37547.69  4358.10  11.61
1461.6  37527.24  4375.63  11.66
1465.4  37404.28  4393.09  11.74
1469.2  37216.73  4418.81  11.87
1473.0  37080.95  4462.16  12.03
1476.8  37019.78  4535.50  12.25
1480.7  36949.43  4622.57  12.51
1484.4  36826.56  4713.52  12.80
1488.2  36723.96  4823.72  13.14
1492.0  36584.11  4935.34  13.49
1495.8  36452.33  5035.34  13.81
1499.6  36350.05  5117.87  14.08
1503.4  36216.75  5185.37  14.32
1507.2  36087.28  5242.60  14.53
1510.9  35929.91  5293.62  14.73
1514.7  35749.31  5349.31  14.96
1518.5  35615.65  5423.51  15.23
1522.3  35466.30  5495.29  15.49
1526.0  35355.47  5565.19  15.74
1529.8  35294.61  5640.56  15.98
1533.6  35159.29  5704.13  16.22
1537.3  35020.99  5774.40  16.49
1541.1  34889.16  5848.10  16.76
1544.8  34754.40  5912.80  17.01
1548.6  34607.98  5978.75  17.28
1552.4  34514.76  6060.22  17.56
1556.1  34455.77  6140.68  17.82
1559.9  34373.05  6204.45  18.05
1563.6  34243.93  6259.98  18.28
1567.3  34122.03  6332.70  18.56
1571.1  33904.82  6390.29  18.85
1574.8  33749.79  6457.63  19.13
1578.6  33637.37  6523.22  19.39
1582.3  33496.17  6560.20  19.58
1586.0  33359.51  6595.39  19.77
1589.8  33217.24  6630.94  19.96
1593.5  33051.52  6658.34  20.15
1597.2  32917.71  6688.39  20.32
1600.9  32767.31  6717.99  20.50
1604.7  32613.52  6745.22  20.68
1608.4  32493.03  6773.69  20.85
1612.1  32320.35  6798.09  21.03
1615.8  32161.00  6821.81  21.21
1619.5  32072.28  6858.86  21.39
1623.2  31915.49  6879.90  21.56
1626.9  31725.78  6887.36  21.71
1630.6  31537.44  6894.58  21.86
1634.3  31397.73  6910.64  22.01
1638.0  31241.74  6916.36  22.14
1641.7  31050.65  6912.16  22.26
1645.4  30870.63  6902.70  22.36
1649.1  30683.95  6885.06  22.44
1652.8  30504.58  6874.30  22.54
1656.4  30322.32  6848.47  22.59
1660.1  30158.02  6822.24  22.62
1663.8  29966.42  6789.72  22.66
1667.5  29809.99  6760.33  22.68
1671.1  29676.54  6728.46  22.67
1674.8  29472.79  6672.38  22.64
1678.5  29413.48  6637.86  22.57
1682.1  29419.35  6607.86  22.46
1685.8  29417.21  6571.93  22.34
1689.5  29310.65  6516.37  22.23
1693.1  29167.59  6446.40  22.10
1696.8  29020.13  6375.29  21.97
1700.4  28874.60  6299.60  21.82
1704.0  28754.23  6218.40  21.63
1707.7  28493.62  6108.50  21.44
1711.3  28200.13  5986.48  21.23
1715.0  27991.44  5885.05  21.02
1718.6  27822.35  5789.53  20.81
1722.2  27677.55  5702.95  20.60
1725.9  27527.50  5616.66  20.40
1729.5  27386.37  5542.82  20.24
1733.1  27262.24  5496.11  20.16
1736.7  27144.69  5459.33  20.11
1740.3  26982.07  5406.32  20.04
1744.0  26899.89  5357.46  19.92
1747.5  26760.07  5284.91  19.75
1751.2  26551.35  5192.89  19.56
1754.8  26397.18  5115.03  19.38
1758.4  26262.14  5039.78  19.19
1762.0  26085.49  4964.34  19.03
1765.5  25956.49  4911.78  18.92
1769.1  25915.20  4884.80  18.85
1772.7  25841.75  4853.30  18.78
1776.3  25724.16  4807.85  18.69
1779.9  25608.69  4764.24  18.60
1783.5  25553.92  4736.80  18.54
1787.0  25434.82  4698.95  18.47
1790.6  25293.30  4661.25  18.43
1794.2  25193.03  4641.45  18.42
1797.8  25095.48  4620.51  18.41
1801.3  25012.46  4601.84  18.40
1804.9  24871.88  4578.88  18.41
1808.4  24792.34  4565.77  18.42
1812.0  24660.35  4540.39  18.41
1815.5  24519.60  4511.01  18.40
1819.1  24324.68  4474.26  18.39
1822.6  24164.48  4443.48  18.39
1826.2  24042.90  4414.76  18.36
1829.7  23859.90  4368.91  18.31
1833.2  23612.46  4307.39  18.24
1836.8  23400.20  4249.85  18.16
1840.3  23257.80  4202.61  18.07
1843.8  23131.92  4154.87  17.96
1847.3  23013.03  4104.49  17.84
1850.8  22865.47  4030.66  17.63
1854.3  22692.74  3932.08  17.33
1857.8  22594.00  3825.47  16.93
1861.3  22615.25  3707.81  16.40
1864.8  22605.64  3550.05  15.70
1868.3  22468.36  3359.12  14.95
1871.8  22341.12  3146.24  14.08
1875.3  22323.21  2934.15  13.14
1878.8  22320.32  2753.30  12.34
1882.3  22237.89  2553.56  11.48
1885.8  22045.10  2363.79  10.72
1889.3  21861.76  2227.05  10.19
1892.7  21710.01  2098.40  9.67
1896.2  21503.16  2006.58  9.33
1899.7  21232.37  1958.68  9.22
1901.7  20074.51  1079.66  5.38
1904.5  20223.67  1065.05  5.27
1907.2  20168.50  1075.08  5.33
1910.0  20030.00  1040.48  5.19
1912.7  20048.69  1016.85  5.07
1915.5  19979.54  1023.62  5.12
1918.2  19877.64  1007.90  5.07
1921.0  19705.09  989.09  5.02
1923.7  19733.20  1009.40  5.12
1926.5  19715.86  1010.65  5.13
1929.2  19701.76  990.86  5.03
1932.0  19674.16  984.87  5.01
1934.7  19635.47  995.32  5.07
1937.4  19518.79  994.60  5.10
1940.2  19475.71  1011.13  5.19
1942.9  19573.26  1021.09  5.22
1945.6  19572.62  1010.69  5.16
1948.3  19494.00  1008.80  5.17
1951.1  19465.67  1024.40  5.26
1953.8  19476.00  1029.00  5.28
1956.5  19368.67  1046.26  5.40
1959.2  19423.04  1066.43  5.49
1961.9  19438.54  1057.90  5.44
1964.6  19331.55  1075.96  5.57
1967.3  19375.30  1087.78  5.61
1970.0  19228.16  1076.45  5.60
1972.8  19159.08  1096.26  5.72
1975.5  19219.42  1119.94  5.83
1978.2  19120.16  1123.23  5.87
1980.9  19002.89  1129.08  5.94
1983.5  18950.70  1135.22  5.99
1986.2  18944.10  1149.45  6.07
1988.9  18909.18  1176.61  6.22
1991.6  18787.78  1176.05  6.26
1994.3  18678.85  1177.48  6.30
1997.0  18669.58  1211.96  6.49
1999.7  18631.37  1219.50  6.55
2002.3  18617.79  1213.96  6.52
2005.0  18540.12  1236.97  6.67
2007.7  18469.93  1245.09  6.74
2010.4  18400.48  1240.98  6.74
2013.0  18316.11  1267.92  6.92
2015.7  18226.45  1255.07  6.89
2018.4  18129.14  1261.37  6.96
2021.0  18062.50  1292.94  7.16
2023.7  17946.51  1276.71  7.11
2026.4  17902.73  1279.71  7.15
2029.0  17806.29  1295.24  7.27
2031.7  17677.40  1289.09  7.29
2034.3  17722.47  1289.10  7.27
2037.0  17610.64  1291.15  7.33
2039.6  17527.07  1298.82  7.41
2042.3  17481.88  1303.07  7.45
2044.9  17393.81  1308.07  7.52
2047.5  17348.93  1323.03  7.63
2050.2  17253.60  1324.40  7.68
2052.8  17214.40  1334.67  7.75
2055.4  17090.17  1337.33  7.83
2058.1  16973.60  1330.93  7.84
2060.7  16918.14  1330.42  7.86
2063.3  16842.61  1322.74  7.85
2065.9  16794.67  1317.67  7.85
2068.6  16710.92  1330.70  7.96
2071.2  16664.67  1353.15  8.12
2073.8  16591.32  1344.13  8.10
2076.4  16536.88  1343.46  8.12
2079.0  16525.61  1360.98  8.24
2081.6  16519.89  1367.28  8.28
2084.2  16487.00  1368.51  8.30
2086.8  16353.42  1367.97  8.37
2089.4  16268.28  1372.95  8.44
2092.1  16209.50  1377.94  8.50
2094.7  16113.80  1388.96  8.62
2097.2  16087.67  1387.39  8.62
2099.8  16089.36  1401.51  8.71
2102.4  15953.94  1406.50  8.82
2105.0  15826.05  1377.50  8.70
2107.6  15774.07  1391.88  8.82
2110.2  15742.83  1415.15  8.99
2112.8  15734.02  1400.17  8.90
2115.3  15735.22  1413.51  8.98
2117.9  15738.64  1437.29  9.13
2120.5  15682.70  1429.32  9.11
2123.1  15604.88  1426.43  9.14
2125.6  15567.02  1452.46  9.33
2128.2  15487.92  1436.02  9.27
2130.8  15394.28  1439.10  9.35
2133.3  15347.20  1452.00  9.46
2135.9  15264.31  1435.54  9.40
2138.4  15119.35  1438.95  9.52
2141.0  15032.51  1442.72  9.60
2143.6  14998.41  1450.20  9.67
2146.1  14847.40  1444.68  9.73
2148.7  14686.27  1424.28  9.70
2151.2  14704.80  1427.56  9.71
2153.8  14713.72  1456.95  9.90
2156.3  14589.47  1445.16  9.91
2158.8  14533.35  1429.41  9.84
2161.4  14517.59  1438.78  9.91
2163.9  14426.20  1443.70  10.01
2166.4  14354.62  1443.84  10.06
2169.0  14310.27  1444.82  10.10
2171.5  14227.48  1432.01  10.07
2174.0  14143.15  1420.07  10.04
2176.5  14124.76  1442.18  10.21
2179.1  14082.55  1445.60  10.27
2181.6  13967.33  1434.65  10.27
2184.1  13937.00  1442.47  10.35
2186.6  13993.83  1444.68  10.32
2189.1  13896.09  1429.52  10.29
2191.6  13840.87  1427.53  10.31
2194.1  13877.92  1441.60  10.39
2196.6  13844.81  1442.45  10.42
2199.2  13897.52  1446.50  10.41
2201.7  13871.80  1430.28  10.31
2204.1  13802.39  1431.80  10.37
2206.6  13786.08  1464.65  10.62
2209.1  13743.34  1454.70  10.58
2211.6  13738.26  1440.19  10.48
2214.1  13693.60  1437.03  10.49
2216.6  13643.61  1425.64  10.45
2219.1  13655.01  1412.98  10.35
2221.6  13597.41  1408.47  10.36
2224.0  13563.60  1419.86  10.47
2226.5  13534.39  1404.05  10.37
2229.0  13551.73  1386.90  10.23
2231.5  13416.49  1369.86  10.21
2233.9  13376.81  1358.46  10.16
2236.4  13409.64  1367.73  10.20
2238.9  13341.63  1343.34  10.07
2241.3  13300.17  1322.76  9.95
2243.8  13261.31  1322.76  9.97
2246.2  13153.53  1288.35  9.79
2248.7  13089.53  1263.70  9.65
2251.2  13067.33  1269.58  9.72
2253.6  13017.60  1262.08  9.70
2256.1  12979.20  1223.68  9.43
2258.5  12980.99  1206.28  9.29
2260.9  12912.45  1191.41  9.23
2263.4  12850.74  1169.41  9.10
2265.8  12840.17  1168.11  9.10
2268.3  12768.77  1154.50  9.04
2270.7  12812.36  1132.31  8.84
2273.1  12778.22  1130.05  8.84
2275.6  12710.40  1126.40  8.86
2278.0  12729.12  1104.32  8.68
2280.4  12680.26  1094.21  8.63
2282.8  12544.20  1089.23  8.68
2285.3  12570.98  1082.25  8.61
2287.7  12679.54  1085.59  8.56
2290.1  12579.51  1071.35  8.52
2292.5  12520.09  1019.86  8.15
2294.9  12538.64  1020.85  8.14
2297.3  12458.25  1016.44  8.16
2299.7  12334.59  968.66  7.85
2302.1  12311.40  975.54  7.92
2304.5  12214.72  960.40  7.86
2306.9  12089.28  925.12  7.65
2309.3  11994.02  926.03  7.72
2311.7  11939.85  904.06  7.57
2314.1  11791.37  892.69  7.57
2316.5  11721.50  927.21  7.91
2318.9  11765.88  918.41  7.81
2321.3  11730.50  909.86  7.76
2323.7  11744.39  914.47  7.79
2326.1  11719.24  901.38  7.69
2328.4  11761.55  908.59  7.73
2330.8  11807.83  910.71  7.71
2333.2  11712.54  895.05  7.64
2335.6  11662.03  885.69  7.59
2337.9  11681.16  888.92  7.61
2340.3  11629.38  874.65  7.52
2342.7  11548.22  842.10  7.29
2345.0  11508.47  852.17  7.40
2347.4  11492.00  847.17  7.37
2349.7  11315.65  798.80  7.06
2352.1  11286.89  797.63  7.07
2354.4  11296.02  799.49  7.08
2356.8  11214.70  798.58  7.12
2359.2  11154.00  806.00  7.23
2361.5  11109.05  804.31  7.24
2363.8  11141.66  784.65  7.04
2366.2  11165.73  785.57  7.04
2368.5  11089.40  789.13  7.12
2370.9  11067.03  778.36  7.03
2373.2  11030.32  771.93  7.00
2375.5  10914.30  751.15  6.88
2377.9  10876.18  743.01  6.83
2380.2  10876.88  746.81  6.87
2382.5  10821.23  738.26  6.82
2384.8  10769.44  719.20  6.68
2387.2  10736.28  714.19  6.65
2389.5  10704.02  708.25  6.62
2391.8  10661.73  705.08  6.61
2394.1  10613.91  713.35  6.72
2396.4  10610.47  704.78  6.64
2398.7  10654.34  699.90  6.57
2401.0  10513.07  698.90  6.65
2403.3  10428.12  664.00  6.37
2405.6  10456.51  649.78  6.21
2407.9  10375.71  664.66  6.41
2410.2  10317.44  668.44  6.48
2412.5  10224.31  657.23  6.43
2414.8  10187.84  669.27  6.57
2417.1  10204.62  645.21  6.32
2419.4  10195.97  600.89  5.89
2421.7  10103.31  634.30  6.28
2424.0  10048.90  656.89  6.54
2426.2  10074.05  613.47  6.09
2428.5  10032.46  616.55  6.15
2430.8  10006.20  614.03  6.14
2433.1  9945.94  564.23  5.67
2435.4  9886.37  568.83  5.75
2437.6  9830.42  583.75  5.94
2439.9  9708.34  552.14  5.69
2442.2  9709.99  572.63  5.90
2444.4  9752.18  595.39  6.11
2446.7  9688.56  550.91  5.69
2448.9  9658.24  560.59  5.80
2451.2  9631.36  560.24  5.82
2453.4  9564.32  534.37  5.59
2455.7  9566.46  514.91  5.38
2457.9  9468.86  510.79  5.39
2460.2  9395.46  542.52  5.77
2462.4  9422.40  542.88  5.76
2464.7  9348.95  523.59  5.60
2466.9  9251.22  487.92  5.27
2469.2  9249.34  494.77  5.35
2471.4  9151.61  505.51  5.52
2473.6  9078.42  459.72  5.06
2475.9  9042.40  487.68  5.39
2478.1  8956.32  498.71  5.57
2480.3  8952.70  454.83  5.08
2482.5  8971.16  467.02  5.21
2484.8  8832.66  463.60  5.25
2487.0  8762.09  474.03  5.41
2489.2  8850.00  459.84  5.20
2491.4  8753.22  453.42  5.18
2493.6  8669.20  462.46  5.33
2495.8  8662.66  451.34  5.21
2498.0  8674.13  453.97  5.23
2500.2  8694.60  432.49  4.97
2502.4  8942.16  461.76  5.16
2504.6  9089.52  456.98  5.03
2506.8  9176.65  399.41  4.35
