/*** Spectra Vista SIG Data ***/
name= GS.sig
comm= Averaged Ref/Tar of files: GD2S7,GD2S8,GD2S9
data=
346.4  509.60  198.00  38.85
347.9  549.06  195.05  35.52
349.5  608.40  198.64  32.65
351.1  655.20  197.08  30.08
352.6  708.40  213.47  30.13
354.2  752.68  219.26  29.13
355.7  818.30  228.99  27.98
357.3  873.81  237.52  27.18
358.8  891.23  241.74  27.12
360.4  967.31  245.05  25.33
361.9  1009.93  249.58  24.71
363.5  1059.53  245.84  23.20
365.1  1102.67  251.97  22.85
366.6  1156.59  250.31  21.64
368.2  1218.77  253.49  20.80
369.7  1306.00  253.58  19.42
371.3  1379.56  260.11  18.85
372.8  1457.48  261.73  17.96
374.4  1528.58  274.79  17.98
375.9  1575.56  279.14  17.72
377.4  1632.76  275.38  16.87
379.0  1683.54  283.25  16.82
380.5  1741.87  280.57  16.11
382.1  1805.51  286.64  15.88
383.6  1862.60  277.83  14.92
385.2  1949.75  281.42  14.43
386.7  2036.04  287.45  14.12
388.3  2135.96  301.64  14.12
389.8  2212.47  310.64  14.04
391.3  2314.34  326.31  14.10
392.9  2392.65  338.56  14.15
394.4  2474.90  352.14  14.23
395.9  2552.82  372.09  14.58
397.5  2664.75  388.68  14.59
399.0  2774.82  390.89  14.09
400.6  2852.64  390.54  13.69
402.1  2910.24  385.71  13.25
403.6  2965.71  386.00  13.02
405.1  3036.77  393.02  12.94
406.7  3133.76  406.56  12.97
408.2  3234.33  417.29  12.90
409.7  3330.88  430.83  12.93
411.3  3437.91  449.06  13.06
412.8  3528.93  465.71  13.20
414.3  3634.54  482.98  13.29
415.8  3740.00  498.33  13.32
417.4  3868.37  515.28  13.32
418.9  3954.39  532.14  13.46
420.4  4037.85  538.79  13.34
421.9  4106.74  547.73  13.34
423.5  4196.00  550.67  13.12
425.0  4263.51  556.26  13.05
426.5  4364.50  554.70  12.71
428.0  4488.82  565.46  12.60
429.5  4615.58  579.01  12.54
431.1  4756.23  595.66  12.52
432.6  4917.76  612.64  12.46
434.1  5064.68  633.97  12.52
435.6  5199.35  652.10  12.54
437.1  5333.25  673.08  12.62
438.6  5454.84  692.34  12.69
440.1  5584.70  712.38  12.76
441.6  5717.14  738.92  12.92
443.1  5852.25  764.44  13.06
444.7  5982.11  795.29  13.29
446.2  6104.50  829.37  13.59
447.7  6213.60  859.04  13.83
449.2  6315.84  887.04  14.04
450.7  6414.72  909.31  14.18
452.2  6543.45  939.93  14.36
453.7  6682.65  972.54  14.55
455.2  6842.54  1006.40  14.71
456.7  7029.44  1044.56  14.86
458.2  7231.16  1085.20  15.01
459.7  7428.75  1125.25  15.15
461.2  7633.63  1169.31  15.32
462.7  7815.14  1202.28  15.38
464.2  8000.76  1239.52  15.49
465.7  8191.53  1275.76  15.57
467.2  8352.58  1309.32  15.68
468.7  8552.00  1352.00  15.81
470.2  8711.17  1390.87  15.97
471.7  8854.00  1428.17  16.13
473.2  9050.37  1461.60  16.15
474.6  9252.88  1489.83  16.10
476.1  9378.88  1511.91  16.12
477.6  9464.51  1534.35  16.21
479.1  9567.20  1554.70  16.25
480.6  9658.16  1576.81  16.33
482.1  9797.74  1604.47  16.38
483.6  9963.22  1643.65  16.50
485.1  10140.49  1688.40  16.65
486.6  10356.19  1743.60  16.84
488.0  10562.50  1809.44  17.13
489.5  10784.97  1879.59  17.43
491.0  10998.86  1962.41  17.84
492.5  11224.98  2051.73  18.28
494.0  11462.99  2154.12  18.79
495.4  11663.85  2253.90  19.32
496.9  11870.36  2370.57  19.97
498.4  12074.30  2489.95  20.62
499.9  12278.41  2626.34  21.39
501.4  12476.75  2772.23  22.22
502.8  12664.51  2926.69  23.11
504.3  12846.60  3094.50  24.09
505.8  13033.73  3270.31  25.09
507.2  13172.68  3443.12  26.14
508.7  13289.99  3622.76  27.26
510.2  13412.81  3809.24  28.40
511.6  13494.72  3990.86  29.57
513.1  13630.43  4189.74  30.74
514.6  13795.53  4407.06  31.95
516.0  13946.28  4621.73  33.14
517.5  14135.83  4868.22  34.44
519.0  14365.19  5122.93  35.66
520.5  14579.60  5384.39  36.93
521.9  14828.55  5660.15  38.17
523.4  15093.49  5954.14  39.45
524.8  15349.14  6239.35  40.65
526.3  15633.70  6531.77  41.78
527.8  15915.89  6821.32  42.86
529.2  16178.21  7089.63  43.82
530.7  16455.24  7355.92  44.70
532.1  16698.15  7601.23  45.52
533.6  16994.07  7860.85  46.26
535.0  17295.55  8113.01  46.91
536.5  17581.25  8348.62  47.49
538.0  17895.84  8589.12  48.00
539.4  18160.64  8816.67  48.55
540.9  18488.86  9052.67  48.96
542.3  18738.28  9261.63  49.43
543.8  18940.29  9428.11  49.78
545.2  19020.35  9528.89  50.10
546.6  19057.19  9596.70  50.36
548.1  19121.11  9661.75  50.53
549.5  19166.91  9718.59  50.71
551.0  19217.70  9762.81  50.80
552.4  19311.21  9812.04  50.81
553.9  19371.38  9841.42  50.80
555.3  19461.20  9871.88  50.73
556.8  19596.88  9920.74  50.62
558.2  19743.75  9961.03  50.45
559.6  19902.71  10004.51  50.27
561.1  20117.50  10070.67  50.06
562.5  20332.52  10135.01  49.85
564.0  20611.34  10225.37  49.61
565.4  20865.50  10290.18  49.32
566.8  21177.73  10376.39  49.00
568.3  21463.05  10433.01  48.61
569.7  21776.78  10492.77  48.18
571.1  22080.65  10531.25  47.69
572.6  22373.82  10566.72  47.23
574.0  22675.95  10598.23  46.74
575.4  22958.44  10623.94  46.27
576.9  23231.09  10647.66  45.83
578.3  23477.03  10657.37  45.39
579.7  23721.74  10676.45  45.01
581.1  23920.49  10669.65  44.60
582.6  24132.47  10679.81  44.25
584.0  24305.80  10675.97  43.92
585.4  24549.94  10701.29  43.59
586.8  24845.17  10754.98  43.29
588.3  25201.80  10832.25  42.98
589.7  25517.70  10889.97  42.68
591.1  25735.55  10916.40  42.42
592.5  25883.00  10907.89  42.14
594.0  25998.42  10877.63  41.84
595.4  26057.54  10836.78  41.59
596.8  26115.38  10803.65  41.37
598.2  26174.55  10757.13  41.10
599.6  26202.06  10705.70  40.86
601.0  26298.70  10677.83  40.60
602.4  26372.18  10638.01  40.34
603.9  26501.77  10608.89  40.03
605.3  26625.41  10582.49  39.75
606.7  26749.80  10535.70  39.39
608.1  26941.18  10516.75  39.04
609.5  27151.69  10505.33  38.69
610.9  27387.74  10501.04  38.34
612.3  27589.20  10479.58  37.98
613.7  27871.80  10489.17  37.63
615.1  28061.64  10452.24  37.25
616.5  28235.16  10418.06  36.90
617.9  28534.12  10451.77  36.63
619.3  28808.15  10485.47  36.40
620.7  29149.14  10565.06  36.24
622.1  29527.66  10652.75  36.08
623.5  29951.83  10777.07  35.98
624.9  30436.35  10937.11  35.93
626.3  30757.12  11050.03  35.93
627.7  30461.43  10926.71  35.87
629.1  30188.34  10796.28  35.76
630.5  30083.03  10675.03  35.49
631.9  30076.12  10561.12  35.11
633.3  30078.24  10430.72  34.68
634.7  30183.54  10351.49  34.30
636.1  30268.81  10257.85  33.89
637.5  30374.19  10187.84  33.54
638.9  30520.15  10148.04  33.25
640.2  30643.60  10112.24  33.00
641.6  30733.56  10035.87  32.65
643.0  30777.50  9925.75  32.25
644.4  30869.16  9799.94  31.75
645.8  30855.38  9631.06  31.21
647.2  31023.20  9510.32  30.66
648.5  31185.15  9373.72  30.06
649.9  31117.13  9181.77  29.51
651.3  31099.80  8994.70  28.92
652.7  31059.00  8792.40  28.31
654.1  30961.56  8502.17  27.46
655.5  30829.51  8203.17  26.61
656.8  30685.81  7918.66  25.81
658.2  30861.69  7734.47  25.06
659.6  31181.89  7597.60  24.37
660.9  31452.29  7434.29  23.64
662.3  31767.46  7262.49  22.86
663.7  32102.70  7086.45  22.07
665.0  32334.98  6912.86  21.38
666.4  32575.38  6763.57  20.76
667.8  32873.84  6653.06  20.24
669.1  33084.01  6553.89  19.81
670.5  33327.47  6500.94  19.51
671.9  33513.12  6454.56  19.26
673.2  33742.50  6449.93  19.12
674.6  33950.66  6475.65  19.07
676.0  34219.05  6545.64  19.13
677.3  34494.18  6641.50  19.25
678.7  34767.13  6787.25  19.52
680.0  35103.31  7005.94  19.96
681.4  35420.13  7320.34  20.67
682.8  35763.00  7734.24  21.63
684.1  36073.44  8263.71  22.91
685.5  36318.59  8918.08  24.56
686.8  36607.26  9707.57  26.52
688.2  36844.31  10613.52  28.81
689.5  36898.97  11604.60  31.45
690.9  36950.15  12691.74  34.35
692.2  37008.15  13847.35  37.42
693.6  37024.93  15074.76  40.72
694.9  37005.38  16300.63  44.05
696.2  37027.13  17561.37  47.43
697.6  37047.86  18806.08  50.76
698.9  37049.76  20024.40  54.05
700.3  37075.62  21208.70  57.20
701.6  37124.24  22342.92  60.18
703.0  37178.40  23414.34  62.98
704.3  37172.20  24379.06  65.58
705.6  37157.22  25285.31  68.05
707.0  37168.46  26138.89  70.33
708.3  37076.04  26878.14  72.49
709.6  36967.81  27558.59  74.55
711.0  36867.73  28155.83  76.37
712.3  36770.31  28696.86  78.04
713.6  36755.88  29260.84  79.61
714.9  36684.64  29751.89  81.10
716.3  36701.44  30261.88  82.45
717.6  36734.04  30753.17  83.72
718.9  36680.73  31126.02  84.86
720.2  36496.25  31387.78  86.00
721.6  36394.28  31655.13  86.98
722.9  36240.12  31877.06  87.96
724.2  36067.30  32026.13  88.80
725.5  35963.70  32192.11  89.51
726.8  35833.96  32315.52  90.18
728.1  35810.80  32490.63  90.73
729.5  35779.10  32640.37  91.23
730.8  35779.13  32791.60  91.65
732.1  35704.25  32893.98  92.13
733.4  35690.92  33006.75  92.48
734.7  35685.89  33088.67  92.72
736.0  35729.66  33233.44  93.01
737.3  35717.44  33318.97  93.28
738.6  35830.21  33528.29  93.58
739.9  36014.88  33820.94  93.91
741.2  36161.58  34069.49  94.21
742.5  36363.94  34424.54  94.67
743.8  36737.66  34945.49  95.12
745.1  37309.08  35676.77  95.62
746.4  37926.98  36489.49  96.21
747.7  38536.99  37287.07  96.76
749.0  39118.92  38027.74  97.21
750.3  39493.02  38423.68  97.29
751.6  39440.80  38363.95  97.27
752.9  39084.79  38009.72  97.25
754.2  38731.25  37641.91  97.19
755.4  38386.91  37266.93  97.08
756.7  38244.09  37215.70  97.31
758.0  38261.36  37351.68  97.62
759.3  38489.95  37698.70  97.94
760.6  38786.44  38118.08  98.28
761.9  39062.28  38507.88  98.58
763.1  39197.21  38741.47  98.84
764.4  39371.54  39012.32  99.09
765.7  39490.75  39229.67  99.34
767.0  39577.16  39420.29  99.60
768.2  39644.64  39586.40  99.85
769.5  39697.68  39718.75  100.05
770.8  39836.32  39943.70  100.27
772.0  39856.44  40025.42  100.42
773.3  39898.95  40147.27  100.62
774.6  39978.84  40292.83  100.79
775.8  40054.79  40409.85  100.89
777.1  40085.96  40487.12  101.00
778.4  40059.57  40489.50  101.07
779.6  39999.54  40517.65  101.30
780.9  39948.00  40500.00  101.38
782.1  39837.20  40407.35  101.43
783.4  39802.88  40453.23  101.63
784.6  39851.08  40546.58  101.75
785.9  40095.40  40915.30  102.04
787.1  40531.58  41545.26  102.50
788.4  40834.19  41975.73  102.80
789.6  40796.10  41830.15  102.53
790.9  40479.11  41366.57  102.19
792.1  40128.24  40944.01  102.03
793.4  39739.41  40576.50  102.11
794.6  39507.48  40316.82  102.05
795.8  39314.07  40118.24  102.05
797.1  39097.95  39882.56  102.01
798.3  38940.83  39757.57  102.10
799.5  38821.14  39692.48  102.24
800.8  38733.05  39608.69  102.26
802.0  38591.76  39512.33  102.39
803.2  38469.72  39397.07  102.41
804.5  38377.94  39318.62  102.45
805.7  38264.87  39219.87  102.50
806.9  38181.95  39120.14  102.46
808.1  38074.65  39056.15  102.58
809.4  38033.33  39028.55  102.62
810.6  37951.55  38969.23  102.68
811.8  37942.61  38985.14  102.75
813.0  37965.80  39039.35  102.83
814.2  37975.49  39106.66  102.98
815.4  38039.93  39228.72  103.13
816.6  38032.65  39280.19  103.28
817.9  38050.16  39316.28  103.33
819.1  37997.24  39245.05  103.28
820.3  37865.18  39106.22  103.28
821.5  37787.61  39002.69  103.22
822.7  37714.41  38936.06  103.24
823.9  37704.87  38930.87  103.25
825.1  37688.07  38928.55  103.29
826.3  37716.38  38921.65  103.20
827.5  37726.06  38941.00  103.22
828.7  37779.60  38943.16  103.08
829.9  37796.29  38959.99  103.08
831.0  37849.02  39015.38  103.08
832.2  37913.75  39065.52  103.04
833.4  37950.44  39112.02  103.06
834.6  37978.13  39179.69  103.16
835.8  38031.53  39241.91  103.18
837.0  38073.26  39354.13  103.36
838.1  38178.69  39509.12  103.48
839.3  38239.24  39593.91  103.54
840.5  38296.24  39719.37  103.72
841.7  38381.58  39880.08  103.90
842.9  38485.06  40040.63  104.04
844.0  38543.94  40170.34  104.22
845.2  38626.85  40333.79  104.42
846.4  38724.98  40472.83  104.51
847.5  38888.12  40700.55  104.66
848.7  39002.30  40895.40  104.85
849.9  39141.74  41063.31  104.91
851.0  39173.78  41110.74  104.94
852.2  39245.07  41175.03  104.92
853.3  39202.67  41143.89  104.95
854.5  39188.19  41158.08  105.03
855.6  39170.88  41147.72  105.05
856.8  39193.80  41214.57  105.16
857.9  39192.81  41211.42  105.15
859.1  39326.60  41337.47  105.11
860.2  39300.24  41372.64  105.27
861.4  39344.78  41412.10  105.25
862.5  39384.29  41450.69  105.25
863.7  39467.66  41539.04  105.25
864.8  39454.45  41566.93  105.35
865.9  39398.65  41511.74  105.36
867.1  39448.45  41535.79  105.29
868.2  39441.53  41544.67  105.33
869.3  39465.67  41571.59  105.34
870.5  39438.89  41509.53  105.25
871.6  39473.54  41499.59  105.13
872.7  39541.37  41556.38  105.10
873.9  39548.50  41583.63  105.15
875.0  39546.05  41546.62  105.06
876.1  39583.15  41543.43  104.95
877.2  39616.79  41547.50  104.87
878.3  39601.98  41533.50  104.88
879.4  39662.11  41568.37  104.81
880.5  39702.60  41583.54  104.74
881.7  39698.10  41526.12  104.60
882.8  39775.46  41538.66  104.43
883.9  39785.32  41541.20  104.41
885.0  39766.55  41441.97  104.21
886.1  39735.85  41352.36  104.07
887.2  39664.66  41155.34  103.76
888.3  39567.00  41011.80  103.65
889.4  39535.02  40874.14  103.39
890.5  39459.91  40773.14  103.33
891.6  39428.33  40677.94  103.17
892.7  39429.01  40621.77  103.03
893.8  39492.50  40626.61  102.87
894.9  39505.51  40604.15  102.78
896.0  39527.49  40526.31  102.53
897.0  39487.40  40526.06  102.63
898.1  39490.45  40471.83  102.49
899.2  39536.22  40490.46  102.41
900.3  39503.73  40347.27  102.14
901.4  39454.09  40235.00  101.98
902.4  39461.49  40226.98  101.94
903.5  39418.10  40120.07  101.78
904.6  39431.18  40066.09  101.61
905.7  39454.64  40054.33  101.52
906.7  39397.52  39985.25  101.49
907.8  39514.80  39992.59  101.21
908.9  39443.33  39880.62  101.11
909.9  39411.21  39793.58  100.97
911.0  39357.50  39689.32  100.84
912.1  39280.99  39579.32  100.76
913.1  39233.48  39452.49  100.56
914.2  39173.92  39266.57  100.24
915.2  39170.79  39184.11  100.03
916.3  39094.50  39117.95  100.06
917.3  39076.47  39031.01  99.88
918.4  39031.30  38866.81  99.58
919.4  39022.48  38740.67  99.28
920.5  39026.74  38630.76  98.99
921.5  39018.63  38578.83  98.87
922.6  38959.72  38406.76  98.58
923.6  39026.05  38321.87  98.20
924.7  39022.50  38201.92  97.90
925.7  39030.84  38093.26  97.60
926.7  39009.32  38009.22  97.44
927.8  39032.57  37872.60  97.03
928.8  39142.62  37838.99  96.67
929.9  39330.10  37785.08  96.07
930.9  39447.46  37809.05  95.85
931.9  39602.61  37797.77  95.44
932.9  39864.58  37916.14  95.11
934.0  39909.81  37824.09  94.77
935.0  39942.68  37694.18  94.37
936.0  39929.50  37511.14  93.94
937.0  39883.94  37318.58  93.57
938.1  39848.52  37133.02  93.19
939.1  39753.89  36927.78  92.89
940.1  39867.76  36820.62  92.36
941.1  39995.43  36850.09  92.14
942.1  40229.45  36888.46  91.70
943.1  40393.76  36842.67  91.21
944.1  40552.56  36862.45  90.90
945.2  40570.32  36714.23  90.50
946.2  40685.67  36585.00  89.92
947.2  40740.25  36420.13  89.40
948.2  40874.09  36357.45  88.95
949.2  40954.06  36193.35  88.38
950.2  41026.00  36056.98  87.89
951.2  41012.16  35876.12  87.48
952.2  41170.94  35718.28  86.76
953.2  41257.13  35630.48  86.36
954.2  41395.95  35529.26  85.83
955.2  41401.94  35333.75  85.34
956.2  41391.82  35161.13  84.95
957.2  41524.97  35029.87  84.36
958.2  41486.28  34963.28  84.28
959.2  41625.00  34934.48  83.93
960.1  41647.94  34856.96  83.69
961.1  41725.78  34841.11  83.50
962.1  41752.50  34755.16  83.24
963.1  41720.60  34791.49  83.39
964.1  41837.60  34799.30  83.18
965.1  41932.95  34889.77  83.20
966.1  41961.44  34872.79  83.11
967.0  42058.17  34910.24  83.00
968.0  42094.69  34874.50  82.85
969.0  42115.20  35006.83  83.12
970.0  42092.26  35036.42  83.24
971.0  42266.18  35066.12  82.96
971.9  42275.33  35095.61  83.02
972.9  42388.85  35135.54  82.89
973.9  42492.13  35204.71  82.85
974.9  42580.28  35286.07  82.87
975.8  42630.52  35336.21  82.89
976.8  42806.43  35397.05  82.69
977.8  42848.34  35483.95  82.81
978.8  42868.95  35644.68  83.15
979.7  43050.58  35771.59  83.09
980.7  43264.32  35980.70  83.16
981.7  43347.07  36108.07  83.30
982.6  43545.07  36359.57  83.50
983.6  44003.55  36910.81  83.88
984.6  44377.46  37293.17  84.04
985.5  44900.28  37898.22  84.41
986.5  45688.01  38666.18  84.63
987.5  46285.78  39381.10  85.08
988.4  47161.40  40065.85  84.95
989.4  47812.76  41009.12  85.77
990.4  48753.98  42282.64  86.73
991.3  50274.64  43258.91  86.05
992.3  50864.45  44278.16  87.05
993.2  51610.85  45851.38  88.84
994.2  53891.66  46469.96  86.23
995.2  55394.96  47188.30  85.19
996.1  55625.12  47729.61  85.81
997.1  56348.70  48151.54  85.45
998.0  54473.40  47906.90  87.95
999.0  55283.87  48117.45  87.04
1000.0  55127.21  47939.42  86.96
1000.9  55875.58  48727.18  87.21
1001.9  56355.47  47908.90  85.01
1002.8  54776.67  48156.08  87.91
1003.8  57170.04  47714.43  83.46
1004.8  54763.20  48222.04  88.06
961.5  49984.08  36642.10  73.31
965.5  48959.90  36307.67  74.16
969.5  47367.08  35401.79  74.74
973.4  45664.01  34349.43  75.22
977.4  44063.24  33608.55  76.27
981.4  43484.76  33536.64  77.12
985.3  43466.28  33807.11  77.78
989.3  43739.41  34284.37  78.38
993.3  44088.36  34790.71  78.91
997.2  44246.85  35148.04  79.44
1001.2  44240.69  35442.16  80.11
1005.2  44147.66  35746.44  80.97
1009.1  44170.72  36181.88  81.91
1013.1  44298.35  36716.99  82.89
1017.1  44409.64  37250.84  83.88
1021.0  44418.65  37705.21  84.89
1025.0  44431.92  38120.90  85.80
1029.0  44310.95  38404.99  86.67
1032.9  44196.36  38686.92  87.53
1036.9  44214.81  39074.04  88.37
1040.9  44317.48  39562.55  89.27
1044.8  44471.57  40100.15  90.17
1048.8  44586.22  40573.12  91.00
1052.7  44660.98  40969.78  91.74
1056.7  44664.90  41260.14  92.38
1060.7  44652.74  41471.62  92.88
1064.6  44643.90  41627.27  93.24
1068.6  44545.19  41644.69  93.49
1072.5  44448.63  41608.08  93.61
1076.5  44390.31  41548.56  93.60
1080.4  44363.13  41471.92  93.48
1084.4  44428.99  41443.47  93.28
1088.3  44526.89  41368.84  92.91
1092.3  44515.11  41149.40  92.44
1096.2  44485.25  40884.60  91.91
1100.2  44489.30  40651.54  91.37
1104.1  44387.15  40294.51  90.78
1108.1  44344.78  39957.86  90.11
1112.0  44255.25  39577.41  89.43
1116.0  44078.91  39073.75  88.65
1119.9  43920.46  38508.30  87.68
1123.9  43980.05  38008.88  86.42
1127.8  43933.44  37208.32  84.69
1131.8  43891.20  36163.25  82.39
1135.7  43904.71  34956.45  79.62
1139.6  43873.24  33622.38  76.64
1143.6  43814.30  32313.11  73.75
1147.5  43764.96  31168.79  71.22
1151.4  43600.54  30193.94  69.25
1155.4  43567.43  29584.59  67.91
1159.3  43548.37  29204.35  67.06
1163.2  43379.84  28851.76  66.51
1167.2  43333.14  28672.82  66.17
1171.1  43320.14  28571.56  65.95
1175.0  43247.45  28438.51  65.76
1179.0  43203.54  28316.42  65.54
1182.9  43281.26  28265.71  65.31
1186.8  43262.79  28166.93  65.11
1190.7  43059.97  27958.23  64.93
1194.7  42822.73  27745.30  64.79
1198.6  42602.18  27590.64  64.76
1202.5  42456.57  27511.11  64.80
1206.4  42335.53  27471.91  64.89
1210.3  42230.32  27473.42  65.06
1214.2  42126.94  27504.21  65.29
1218.2  41984.08  27539.95  65.60
1222.1  41854.50  27599.52  65.94
1226.0  41760.57  27678.00  66.28
1229.9  41673.90  27758.22  66.61
1233.8  41576.55  27825.20  66.93
1237.7  41528.30  27913.90  67.22
1241.6  41457.25  27980.67  67.49
1245.5  41309.15  27983.52  67.74
1249.4  41175.26  27989.28  67.98
1253.3  41058.30  27991.73  68.18
1257.2  40978.33  27999.70  68.33
1261.1  40873.57  27968.33  68.43
1265.0  40757.89  27893.28  68.44
1268.9  40587.74  27768.09  68.41
1272.8  40626.75  27776.10  68.37
1276.7  40780.33  27827.24  68.24
1280.6  40842.56  27777.39  68.01
1284.5  40748.73  27588.59  67.70
1288.4  40697.88  27387.86  67.30
1292.3  40562.50  27093.00  66.79
1296.2  40411.46  26754.61  66.21
1300.1  40239.63  26364.02  65.52
1303.9  40009.73  25886.42  64.70
1307.8  39785.54  25374.84  63.78
1311.7  39554.21  24813.14  62.73
1315.6  39326.35  24223.09  61.60
1319.5  39086.11  23604.88  60.39
1323.3  38870.69  22977.48  59.11
1327.2  38681.53  22355.43  57.79
1331.1  38474.56  21722.78  56.46
1335.0  38203.08  21070.84  55.15
1338.8  38009.09  20483.98  53.89
1342.7  37876.27  19945.47  52.66
1346.5  37598.34  19340.84  51.44
1350.4  37400.07  18791.35  50.24
1354.3  37094.65  18220.40  49.12
1358.1  36731.71  17660.44  48.08
1362.0  36487.36  17185.41  47.10
1365.8  36370.47  16756.06  46.07
1369.7  36432.94  16348.54  44.87
1373.5  36366.82  15770.66  43.37
1377.4  36166.21  14980.61  41.42
1381.2  35990.96  14069.29  39.09
1385.1  35936.27  13165.03  36.63
1389.0  35813.45  12247.95  34.20
1392.8  35598.92  11308.06  31.77
1396.6  35460.61  10452.51  29.48
1400.5  35253.63  9696.12  27.50
1404.3  35072.57  9074.07  25.87
1408.2  35016.72  8589.35  24.53
1412.0  34945.02  8205.54  23.48
1415.8  34962.39  7940.75  22.71
1419.6  34891.95  7725.89  22.14
1423.5  34842.23  7558.77  21.69
1427.3  34796.45  7427.83  21.35
1431.1  34758.75  7335.38  21.10
1434.9  34669.05  7252.29  20.92
1438.8  34606.94  7196.57  20.80
1442.6  34573.84  7164.03  20.72
1446.4  34441.31  7123.22  20.68
1450.2  34332.12  7103.88  20.69
1454.0  34220.52  7090.80  20.72
1457.8  34188.19  7103.88  20.78
1461.6  34155.00  7134.60  20.89
1465.4  34045.70  7165.72  21.05
1469.2  33870.20  7210.99  21.29
1473.0  33726.92  7282.60  21.59
1476.8  33664.28  7393.63  21.96
1480.7  33601.58  7522.22  22.39
1484.4  33488.64  7653.20  22.85
1488.2  33386.04  7807.48  23.39
1492.0  33257.25  7966.58  23.95
1495.8  33142.20  8124.03  24.51
1499.6  33034.11  8260.61  25.01
1503.4  32933.47  8376.37  25.43
1507.2  32852.74  8484.08  25.82
1510.9  32722.34  8569.13  26.19
1514.7  32573.11  8610.93  26.44
1518.5  32453.90  8630.81  26.59
1522.3  32317.90  8697.39  26.91
1526.0  32200.64  8886.68  27.60
1529.8  32127.61  9119.74  28.39
1533.6  32011.66  9273.20  28.97
1537.3  31894.88  9384.71  29.42
1541.1  31782.08  9493.45  29.87
1544.8  31651.20  9608.80  30.36
1548.6  31528.46  9724.18  30.84
1552.4  31450.00  9833.16  31.27
1556.1  31366.15  9929.20  31.66
1559.9  31270.43  10014.10  32.02
1563.6  31150.17  10099.10  32.42
1567.3  31046.10  10210.88  32.89
1571.1  30855.35  10296.26  33.37
1574.8  30723.08  10397.77  33.84
1578.6  30633.26  10496.85  34.27
1582.3  30519.48  10562.57  34.61
1586.0  30400.45  10611.88  34.91
1589.8  30269.89  10656.98  35.21
1593.5  30123.48  10698.51  35.52
1597.2  29998.09  10746.88  35.83
1600.9  29883.71  10787.07  36.10
1604.7  29753.95  10819.91  36.36
1608.4  29639.51  10869.51  36.67
1612.1  29489.62  10898.40  36.96
1615.8  29365.23  10928.85  37.22
1619.5  29298.37  10986.39  37.50
1623.2  29161.12  11011.86  37.76
1626.9  29003.45  11021.72  38.00
1630.6  28846.40  11033.59  38.25
1634.3  28721.00  11043.00  38.45
1638.0  28599.28  11042.38  38.61
1641.7  28456.49  11021.17  38.73
1645.4  28299.47  10986.07  38.82
1649.1  28138.66  10939.11  38.88
1652.8  28008.70  10899.90  38.92
1656.4  27859.80  10853.52  38.96
1660.1  27720.43  10816.38  39.02
1663.8  27551.22  10767.20  39.08
1667.5  27406.07  10726.26  39.14
1671.1  27282.14  10688.76  39.18
1674.8  27100.13  10612.82  39.16
1678.5  27060.12  10570.25  39.06
1682.1  27085.37  10539.96  38.91
1685.8  27087.74  10505.36  38.78
1689.5  26985.46  10425.55  38.63
1693.1  26859.21  10318.98  38.42
1696.8  26718.75  10210.92  38.22
1700.4  26575.97  10099.68  38.00
1704.0  26457.91  9987.40  37.75
1707.7  26210.69  9818.66  37.46
1711.3  25940.59  9631.49  37.13
1715.0  25755.85  9480.31  36.81
1718.6  25603.66  9342.80  36.49
1722.2  25471.82  9213.01  36.17
1725.9  25346.15  9084.14  35.84
1729.5  25225.17  8972.53  35.57
1733.1  25122.33  8895.49  35.41
1736.7  25028.77  8833.12  35.29
1740.3  24869.68  8746.54  35.17
1744.0  24796.20  8665.53  34.95
1747.5  24670.34  8548.62  34.65
1751.2  24460.97  8403.71  34.36
1754.8  24300.77  8275.16  34.05
1758.4  24168.99  8157.25  33.75
1762.0  24004.67  8035.00  33.47
1765.5  23878.06  7946.61  33.28
1769.1  23824.80  7896.00  33.14
1772.7  23745.17  7844.04  33.03
1776.3  23631.64  7774.09  32.90
1779.9  23517.13  7707.46  32.77
1783.5  23453.36  7665.68  32.68
1787.0  23338.16  7606.12  32.59
1790.6  23194.11  7545.56  32.53
1794.2  23099.94  7508.24  32.50
1797.8  23019.59  7478.18  32.49
1801.3  22943.45  7456.57  32.50
1804.9  22821.75  7414.75  32.49
1808.4  22758.56  7395.80  32.50
1812.0  22651.25  7363.08  32.51
1815.5  22537.46  7309.55  32.43
1819.1  22377.91  7245.21  32.38
1822.6  22230.86  7198.65  32.38
1826.2  22108.08  7156.99  32.37
1829.7  21962.63  7094.73  32.30
1833.2  21769.52  7007.49  32.19
1836.8  21568.82  6919.95  32.08
1840.3  21408.35  6857.99  32.03
1843.8  21283.15  6817.70  32.03
1847.3  21175.36  6794.36  32.09
1850.8  21026.88  6753.60  32.12
1854.3  20829.70  6650.90  31.93
1857.8  20716.80  6494.80  31.35
1861.3  20743.52  6280.69  30.28
1864.8  20771.48  5964.35  28.71
1868.3  20668.83  5567.51  26.94
1871.8  20505.60  5178.88  25.26
1875.3  20412.67  4813.75  23.58
1878.8  20386.82  4496.03  22.05
1882.3  20318.80  4203.71  20.69
1885.8  20165.84  3887.00  19.28
1889.3  19976.70  3625.56  18.15
1892.7  19815.25  3435.35  17.34
1896.2  19650.94  3302.49  16.81
1899.7  19441.16  3229.27  16.61
1903.1  19313.45  3281.43  16.99
1906.6  19304.54  3444.75  17.84
1910.0  19451.18  3710.94  19.08
1913.5  19794.95  4139.03  20.91
1917.0  20308.75  4738.71  23.33
1920.4  20662.58  5269.65  25.50
1923.8  20806.27  5616.97  27.00
1871.2  18887.00  3952.91  20.93
1873.9  18953.16  3822.85  20.17
1876.7  18991.47  3637.87  19.16
1879.5  19143.67  3417.61  17.85
1882.3  18900.39  3157.58  16.71
1885.1  18757.12  2907.81  15.50
1887.8  18909.61  2759.89  14.60
1890.6  18719.80  2585.89  13.81
1893.4  18700.00  2444.44  13.07
1896.2  18690.78  2335.77  12.50
1898.9  18634.09  2228.90  11.96
1901.7  18493.24  2141.68  11.58
1904.5  18663.12  2123.05  11.38
1907.2  18605.75  2085.25  11.21
1910.0  18464.96  2053.59  11.12
1912.7  18451.36  2037.70  11.04
1915.5  18338.72  2005.86  10.94
1918.2  18231.61  1987.17  10.90
1921.0  18078.76  1973.61  10.92
1923.7  18082.37  1985.44  10.98
1926.5  18028.91  1971.37  10.93
1929.2  17989.40  1961.41  10.90
1932.0  17961.44  1984.48  11.05
1934.7  17922.05  1979.18  11.04
1937.4  17800.47  1972.66  11.08
1940.2  17730.06  2000.74  11.28
1942.9  17801.07  2022.90  11.36
1945.6  17808.94  2032.46  11.41
1948.3  17731.12  2054.69  11.59
1951.1  17698.80  2062.85  11.66
1953.8  17700.00  2078.00  11.74
1956.5  17568.67  2104.49  11.98
1959.2  17632.03  2116.92  12.01
1961.9  17647.56  2138.65  12.12
1964.6  17543.58  2174.73  12.40
1967.3  17598.27  2205.22  12.53
1970.0  17419.60  2204.21  12.65
1972.8  17335.24  2227.82  12.85
1975.5  17419.52  2267.19  13.02
1978.2  17336.04  2269.81  13.09
1980.9  17221.82  2296.05  13.33
1983.5  17185.34  2328.61  13.55
1986.2  17183.55  2332.85  13.58
1988.9  17157.36  2380.38  13.87
1991.6  17017.92  2404.23  14.13
1994.3  16893.86  2400.21  14.21
1997.0  16913.63  2437.38  14.41
1999.7  16876.79  2457.19  14.56
2002.3  16857.27  2482.57  14.73
2005.0  16785.35  2514.21  14.98
2007.7  16706.93  2523.62  15.11
2010.4  16656.07  2534.29  15.22
2013.0  16600.58  2575.67  15.52
2015.7  16495.88  2589.71  15.70
2018.4  16401.61  2587.04  15.77
2021.0  16371.00  2618.94  16.00
2023.7  16264.64  2636.34  16.21
2026.4  16195.83  2651.42  16.37
2029.0  16138.97  2660.78  16.49
2031.7  16029.65  2668.32  16.65
2034.3  16012.75  2692.73  16.82
2037.0  15932.90  2711.78  17.02
2039.6  15864.39  2718.62  17.14
2042.3  15822.15  2722.21  17.21
2044.9  15747.27  2746.10  17.44
2047.5  15719.22  2762.93  17.58
2050.2  15638.00  2771.07  17.72
2052.8  15596.00  2788.80  17.88
2055.4  15487.61  2790.46  18.02
2058.1  15363.60  2793.47  18.18
2060.7  15311.01  2811.77  18.36
2063.3  15243.07  2819.18  18.49
2065.9  15200.63  2823.31  18.57
2068.6  15142.00  2846.57  18.80
2071.2  15102.27  2862.54  18.95
2073.8  15013.06  2854.30  19.01
2076.4  14939.89  2874.96  19.24
2079.0  14937.96  2892.43  19.36
2081.6  14955.68  2915.55  19.49
2084.2  14929.44  2939.24  19.69
2086.8  14795.01  2931.10  19.81
2089.4  14708.12  2923.66  19.88
2092.1  14645.50  2942.89  20.09
2094.7  14574.18  2949.30  20.24
2097.2  14543.50  2955.17  20.32
2099.8  14569.24  2989.95  20.52
2102.4  14455.51  2970.33  20.55
2105.0  14315.55  2958.30  20.66
2107.6  14281.54  2990.75  20.94
2110.2  14245.28  3008.38  21.12
2112.8  14225.04  3014.13  21.19
2115.3  14222.61  3041.58  21.39
2117.9  14223.97  3054.49  21.47
2120.5  14225.20  3063.67  21.54
2123.1  14136.53  3069.30  21.71
2125.6  14079.43  3077.68  21.86
2128.2  14012.88  3078.85  21.97
2130.8  13940.55  3081.98  22.11
2133.3  13889.33  3093.69  22.27
2135.9  13802.30  3092.68  22.41
2138.4  13704.95  3079.27  22.47
2141.0  13601.55  3061.74  22.51
2143.6  13585.34  3073.36  22.62
2146.1  13439.94  3058.80  22.76
2148.7  13282.54  3040.43  22.89
2151.2  13302.67  3055.56  22.97
2153.8  13324.47  3065.97  23.01
2156.3  13227.98  3041.93  23.00
2158.8  13160.05  3038.00  23.08
2161.4  13128.93  3062.34  23.33
2163.9  13034.58  3042.68  23.34
2166.4  12973.85  3029.60  23.35
2169.0  12959.07  3040.44  23.46
2171.5  12876.28  3009.89  23.38
2174.0  12786.55  2998.80  23.45
2176.5  12767.30  3013.92  23.61
2179.1  12718.27  2996.61  23.56
2181.6  12644.21  2989.96  23.65
2184.1  12612.60  2991.71  23.72
2186.6  12631.79  2990.83  23.68
2189.1  12551.10  2955.34  23.55
2191.6  12501.53  2963.96  23.71
2194.1  12512.72  2982.85  23.84
2196.6  12513.32  2963.03  23.68
2199.2  12564.98  2994.15  23.83
2201.7  12503.60  2985.92  23.88
2204.1  12450.01  2974.76  23.89
2206.6  12458.20  2981.51  23.93
2209.1  12429.94  2956.09  23.78
2211.6  12413.54  2951.44  23.78
2214.1  12385.83  2941.22  23.75
2216.6  12340.79  2933.58  23.77
2219.1  12355.98  2933.58  23.74
2221.6  12303.15  2923.52  23.76
2224.0  12230.10  2889.25  23.62
2226.5  12198.83  2867.70  23.51
2229.0  12234.63  2875.30  23.50
2231.5  12152.59  2831.65  23.30
2233.9  12137.64  2811.85  23.17
2236.4  12131.98  2790.78  23.00
2238.9  12024.13  2768.04  23.02
2241.3  12068.10  2740.10  22.71
2243.8  12017.57  2714.19  22.59
2246.2  11870.35  2680.07  22.58
2248.7  11882.39  2640.53  22.22
2251.2  11860.53  2639.09  22.25
2253.6  11784.96  2618.88  22.22
2256.1  11773.44  2571.52  21.84
2258.5  11793.92  2567.51  21.77
2260.9  11696.75  2522.15  21.56
2263.4  11668.53  2477.01  21.23
2265.8  11678.48  2477.25  21.21
2268.3  11583.48  2439.85  21.06
2270.7  11653.18  2425.83  20.82
2273.1  11608.55  2398.16  20.66
2275.6  11523.84  2374.40  20.60
2278.0  11553.06  2355.96  20.39
2280.4  11529.61  2337.22  20.27
2282.8  11402.06  2312.67  20.28
2285.3  11435.59  2285.04  19.98
2287.7  11531.47  2297.45  19.92
2290.1  11440.95  2231.00  19.50
2292.5  11408.96  2182.58  19.13
2294.9  11404.51  2177.37  19.09
2297.3  11303.39  2100.11  18.58
2299.7  11233.01  2058.40  18.32
2302.1  11231.11  2070.23  18.43
2304.5  11113.20  2033.17  18.30
2306.9  10995.60  1971.76  17.93
2309.3  10932.15  1947.41  17.81
2311.7  10856.55  1936.34  17.84
2314.1  10708.33  1927.16  18.00
2316.5  10641.94  1930.60  18.14
2318.9  10674.03  1939.30  18.17
2321.3  10672.73  1937.25  18.15
2323.7  10642.23  1958.06  18.40
2326.1  10606.96  1949.18  18.38
2328.4  10691.58  1924.32  18.00
2330.8  10736.25  1934.57  18.02
2333.2  10617.06  1904.04  17.93
2335.6  10582.60  1876.55  17.73
2337.9  10642.00  1875.22  17.62
2340.3  10592.40  1855.66  17.52
2342.7  10507.23  1795.64  17.09
2345.0  10502.01  1775.11  16.90
2347.4  10493.25  1768.00  16.85
2349.7  10277.63  1722.91  16.76
2352.1  10236.25  1725.34  16.86
2354.4  10290.21  1705.01  16.57
2356.8  10243.45  1690.69  16.51
2359.2  10187.67  1694.33  16.63
2361.5  10122.93  1681.34  16.61
2363.8  10144.75  1664.44  16.41
2366.2  10159.49  1668.24  16.42
2368.5  10097.05  1652.43  16.37
2370.9  10118.68  1610.40  15.92
2373.2  10072.53  1627.80  16.16
2375.5  9932.38  1606.38  16.17
2377.9  9918.93  1568.07  15.81
2380.2  9923.89  1557.77  15.70
2382.5  9856.28  1528.60  15.51
2384.8  9822.88  1498.72  15.26
2387.2  9807.99  1490.89  15.20
2389.5  9759.69  1499.92  15.37
2391.8  9772.85  1470.36  15.05
2394.1  9716.63  1460.29  15.03
2396.4  9652.48  1448.28  15.00
2398.7  9714.10  1430.65  14.73
2401.0  9598.25  1447.24  15.08
2403.3  9511.80  1407.68  14.80
2405.6  9521.83  1366.21  14.35
2407.9  9458.88  1401.13  14.81
2410.2  9400.00  1382.01  14.70
2412.5  9350.27  1328.01  14.20
2414.8  9330.30  1355.64  14.53
2417.1  9280.68  1355.80  14.61
2419.4  9294.64  1311.18  14.11
2421.7  9214.94  1303.65  14.15
2424.0  9156.02  1301.46  14.21
2426.2  9223.40  1271.52  13.79
2428.5  9129.27  1261.94  13.82
2430.8  9112.40  1268.03  13.92
2433.1  9071.93  1220.66  13.46
2435.4  8991.17  1210.39  13.46
2437.6  8963.19  1229.04  13.71
2439.9  8866.09  1184.77  13.36
2442.2  8873.80  1185.07  13.35
2444.4  8827.50  1179.30  13.36
2446.7  8812.56  1127.12  12.79
2448.9  8870.66  1136.96  12.82
2451.2  8802.92  1152.27  13.09
2453.4  8732.64  1108.91  12.70
2455.7  8702.87  1104.84  12.70
2457.9  8608.05  1109.08  12.88
2460.2  8594.01  1091.21  12.70
2462.4  8611.20  1089.92  12.66
2464.7  8503.63  1064.00  12.51
2466.9  8416.62  1022.92  12.15
2469.2  8471.54  1032.75  12.19
2471.4  8370.38  1021.96  12.21
2473.6  8261.63  990.86  11.99
2475.9  8256.69  988.91  11.98
2478.1  8211.66  992.87  12.09
2480.3  8173.00  988.56  12.10
2482.5  8177.69  974.56  11.92
2484.8  8119.06  956.33  11.78
2487.0  8110.30  948.05  11.69
2489.2  8058.48  959.88  11.91
2491.4  7946.29  950.38  11.96
2493.6  7987.26  922.31  11.55
2495.8  7981.68  944.92  11.84
2498.0  7985.07  924.16  11.57
2500.2  7961.63  881.82  11.08
2502.4  8125.20  956.08  11.77
2504.6  8272.59  957.78  11.58
2506.8  8348.61  912.47  10.93
