/*** Spectra Vista SIG Data ***/
name= GS1.sig
comm= SIG file reprocesed for matching/overlap;Averaged Ref/Tar of files: GD6S1,GD6S2,GD6S3
data=
346.4  350.35  82.81  23.64
347.9  381.21  85.13  22.33
349.5  410.28  85.70  20.89
351.1  433.68  87.77  20.24
352.6  475.96  89.40  18.78
354.2  499.06  94.68  18.97
355.7  540.48  98.33  18.19
357.3  582.54  101.48  17.42
358.8  588.91  103.45  17.57
360.4  636.67  109.98  17.27
361.9  668.64  109.12  16.32
363.5  692.50  113.80  16.43
365.1  712.57  115.82  16.25
366.6  747.47  116.47  15.58
368.2  792.37  119.75  15.11
369.7  840.74  120.15  14.29
371.3  898.85  125.77  13.99
372.8  941.22  130.36  13.85
374.4  986.23  136.84  13.88
375.9  1017.83  139.24  13.68
377.4  1052.18  140.51  13.35
379.0  1086.82  142.15  13.08
380.5  1123.29  145.26  12.93
382.1  1153.93  144.60  12.53
383.6  1194.95  145.15  12.15
385.2  1251.25  149.42  11.94
386.7  1299.60  150.71  11.60
388.3  1372.34  159.79  11.64
389.8  1424.66  163.79  11.50
391.3  1483.01  170.44  11.49
392.9  1530.61  174.87  11.42
394.4  1562.39  179.63  11.50
395.9  1621.81  190.91  11.77
397.5  1711.90  199.83  11.67
399.0  1784.48  205.38  11.51
400.6  1838.09  203.95  11.10
402.1  1856.31  201.24  10.84
403.6  1888.03  201.39  10.67
405.1  1944.54  202.45  10.41
406.7  2010.40  210.26  10.46
408.2  2079.37  214.88  10.33
409.7  2148.16  221.46  10.31
411.3  2213.53  231.03  10.44
412.8  2271.65  238.74  10.51
414.3  2341.03  246.38  10.52
415.8  2417.50  254.17  10.51
417.4  2490.79  262.44  10.54
418.9  2548.98  266.33  10.45
420.4  2593.45  274.01  10.57
421.9  2640.22  275.72  10.44
423.5  2679.41  279.11  10.42
425.0  2722.85  283.93  10.43
426.5  2778.88  288.96  10.40
428.0  2849.90  295.97  10.39
429.5  2939.79  306.52  10.43
431.1  3042.79  315.28  10.36
432.6  3149.06  329.26  10.46
434.1  3259.99  340.09  10.43
435.6  3346.58  352.69  10.54
437.1  3441.75  362.44  10.53
438.6  3531.11  371.78  10.53
440.1  3611.12  382.36  10.59
441.6  3703.62  395.29  10.67
443.1  3787.76  404.60  10.68
444.7  3873.68  413.60  10.68
446.2  3941.61  422.96  10.73
447.7  4009.71  432.94  10.80
449.2  4084.56  441.36  10.81
450.7  4145.44  448.45  10.82
452.2  4210.01  455.88  10.83
453.7  4291.20  463.14  10.79
455.2  4393.26  473.52  10.78
456.7  4515.28  486.47  10.77
458.2  4654.47  504.56  10.84
459.7  4795.00  519.87  10.84
461.2  4934.06  538.09  10.91
462.7  5054.96  552.63  10.93
464.2  5177.07  569.86  11.01
465.7  5301.12  587.53  11.08
467.2  5404.44  600.35  11.11
468.7  5508.00  618.40  11.23
470.2  5586.81  631.26  11.30
471.7  5702.38  647.11  11.35
473.2  5885.72  673.10  11.44
474.6  6027.25  691.19  11.47
476.1  6074.86  693.80  11.42
477.6  6093.70  695.44  11.41
479.1  6122.60  699.56  11.43
480.6  6163.05  704.57  11.43
482.1  6243.66  712.87  11.42
483.6  6332.42  724.44  11.44
485.1  6458.38  740.78  11.47
486.6  6604.00  757.41  11.47
488.0  6753.50  777.08  11.51
489.5  6913.82  798.14  11.54
491.0  7075.65  818.72  11.57
492.5  7238.97  839.59  11.60
494.0  7404.10  865.13  11.68
495.4  7549.58  885.50  11.73
496.9  7695.36  907.48  11.79
498.4  7836.28  928.96  11.85
499.9  7979.51  954.59  11.96
501.4  8103.78  974.99  12.03
502.8  8223.51  1001.58  12.18
504.3  8333.10  1022.88  12.27
505.8  8444.88  1045.33  12.38
507.2  8514.20  1062.93  12.48
508.7  8565.01  1080.58  12.62
510.2  8590.79  1096.11  12.76
511.6  8618.22  1112.78  12.91
513.1  8670.26  1129.35  13.03
514.6  8732.77  1150.06  13.17
516.0  8783.27  1169.56  13.32
517.5  8880.96  1192.78  13.43
519.0  8994.65  1221.16  13.58
520.5  9112.66  1247.49  13.69
521.9  9263.01  1280.76  13.83
523.4  9434.43  1319.38  13.98
524.8  9608.27  1353.59  14.09
526.3  9802.81  1395.84  14.24
527.8  10000.35  1435.94  14.36
529.2  10181.33  1475.76  14.49
530.7  10383.39  1519.71  14.64
532.1  10567.68  1559.65  14.76
533.6  10773.42  1604.04  14.89
535.0  10980.59  1650.73  15.03
536.5  11186.70  1696.69  15.17
538.0  11401.56  1744.07  15.30
539.4  11601.83  1792.48  15.45
540.9  11838.18  1849.82  15.63
542.3  12056.36  1907.20  15.82
543.8  12205.88  1951.46  15.99
545.2  12241.58  1977.49  16.15
546.6  12248.30  1996.76  16.30
548.1  12260.70  2015.91  16.44
549.5  12261.13  2035.78  16.60
551.0  12260.01  2052.70  16.74
552.4  12274.54  2077.77  16.93
553.9  12279.40  2098.24  17.09
555.3  12300.80  2122.15  17.25
556.8  12360.66  2153.81  17.42
558.2  12414.09  2187.23  17.62
559.6  12499.51  2224.38  17.80
561.1  12612.44  2270.34  18.00
562.5  12742.28  2318.60  18.20
564.0  12915.37  2377.82  18.41
565.4  13070.62  2436.43  18.64
566.8  13269.64  2505.30  18.88
568.3  13461.39  2572.40  19.11
569.7  13659.35  2646.15  19.37
571.1  13859.91  2717.14  19.60
572.6  14064.03  2789.10  19.83
574.0  14250.23  2862.97  20.09
575.4  14437.41  2938.27  20.35
576.9  14612.77  3007.28  20.58
578.3  14771.90  3076.05  20.82
579.7  14927.19  3142.99  21.06
581.1  15049.34  3206.92  21.31
582.6  15179.87  3273.21  21.56
584.0  15306.40  3336.32  21.80
585.4  15471.50  3411.40  22.05
586.8  15703.41  3502.16  22.30
588.3  15959.97  3600.95  22.56
589.7  16164.72  3685.81  22.80
591.1  16308.26  3754.15  23.02
592.5  16380.50  3808.54  23.25
594.0  16416.90  3851.70  23.46
595.4  16426.30  3890.14  23.68
596.8  16438.21  3924.92  23.88
598.2  16446.40  3961.03  24.08
599.6  16446.15  3995.51  24.29
601.0  16488.64  4036.48  24.48
602.4  16524.83  4081.54  24.70
603.9  16595.00  4131.45  24.90
605.3  16677.56  4185.69  25.10
606.7  16748.10  4238.16  25.31
608.1  16880.08  4307.53  25.52
609.5  17023.96  4384.46  25.75
610.9  17200.20  4471.86  26.00
612.3  17363.60  4559.25  26.26
613.7  17583.26  4665.15  26.53
615.1  17730.09  4754.27  26.81
616.5  17885.32  4846.57  27.10
617.9  18120.27  4966.68  27.41
619.3  18343.55  5084.11  27.72
620.7  18613.68  5220.97  28.05
622.1  18877.69  5362.78  28.41
623.5  19168.37  5511.41  28.75
624.9  19495.88  5658.52  29.02
626.3  19705.80  5773.89  29.30
627.7  19502.63  5767.54  29.57
629.1  19316.59  5764.49  29.84
630.5  19234.56  5792.76  30.12
631.9  19243.16  5842.24  30.36
633.3  19227.78  5886.81  30.62
634.7  19307.14  5967.44  30.91
636.1  19335.07  6020.40  31.14
637.5  19378.14  6071.13  31.33
638.9  19457.31  6149.58  31.61
640.2  19514.53  6224.25  31.90
641.6  19531.98  6266.83  32.08
643.0  19504.65  6296.60  32.28
644.4  19507.28  6347.23  32.54
645.8  19449.04  6395.56  32.88
647.2  19526.59  6487.70  33.22
648.5  19579.91  6572.37  33.57
649.9  19492.88  6603.84  33.88
651.3  19428.45  6639.69  34.18
652.7  19344.30  6664.34  34.45
654.1  19217.52  6598.70  34.34
655.5  19076.42  6491.64  34.03
656.8  18936.77  6391.09  33.75
658.2  19052.33  6376.12  33.47
659.6  19274.42  6409.46  33.25
660.9  19463.87  6435.77  33.07
662.3  19650.11  6461.17  32.88
663.7  19826.10  6484.52  32.71
665.0  19986.79  6508.65  32.56
666.4  20146.14  6539.03  32.46
667.8  20346.56  6597.64  32.43
669.1  20529.76  6657.02  32.43
670.5  20738.52  6743.11  32.51
671.9  20872.26  6824.61  32.70
673.2  21059.41  6940.87  32.96
674.6  21230.21  7073.58  33.32
676.0  21420.32  7235.93  33.78
677.3  21614.12  7418.12  34.32
678.7  21817.38  7623.79  34.94
680.0  22089.50  7865.45  35.61
681.4  22373.47  8123.44  36.31
682.8  22657.86  8392.78  37.04
684.1  22942.53  8674.53  37.81
685.5  23200.94  8949.47  38.57
686.8  23448.72  9215.65  39.30
688.2  23672.40  9458.78  39.96
689.5  23749.65  9647.13  40.62
690.9  23825.77  9822.69  41.23
692.2  23869.28  9984.95  41.83
693.6  23926.69  10143.39  42.39
694.9  23920.11  10272.39  42.94
696.2  23942.14  10400.89  43.44
697.6  23961.85  10517.23  43.89
698.9  23992.32  10637.79  44.34
700.3  24038.01  10762.06  44.77
701.6  24084.68  10889.09  45.21
703.0  24137.54  11008.88  45.61
704.3  24141.49  11100.28  45.98
705.6  24144.66  11187.53  46.34
707.0  24151.61  11276.20  46.69
708.3  24094.31  11332.96  47.04
709.6  24038.25  11386.65  47.37
711.0  23936.43  11415.31  47.69
712.3  23827.16  11439.52  48.01
713.6  23789.01  11497.36  48.33
714.9  23716.29  11534.40  48.63
716.3  23686.39  11589.71  48.93
717.6  23672.15  11656.32  49.24
718.9  23614.96  11690.40  49.50
720.2  23494.56  11698.87  49.79
721.6  23399.74  11707.25  50.03
722.9  23270.63  11708.50  50.31
724.2  23091.17  11694.98  50.65
725.5  22957.02  11692.22  50.93
726.8  22832.78  11690.67  51.20
728.1  22750.67  11706.98  51.46
729.5  22685.44  11728.58  51.70
730.8  22628.18  11755.01  51.95
732.1  22547.20  11778.02  52.24
733.4  22493.78  11805.33  52.48
734.7  22430.29  11830.09  52.74
736.0  22412.65  11874.71  52.98
737.3  22354.35  11906.35  53.26
738.6  22392.88  11986.87  53.53
739.9  22486.41  12095.43  53.79
741.2  22557.99  12192.54  54.05
742.5  22690.46  12335.40  54.36
743.8  22954.18  12535.41  54.61
745.1  23356.68  12818.69  54.88
746.4  23838.13  13141.73  55.13
747.7  24340.83  13473.03  55.35
749.0  24845.90  13790.00  55.50
750.3  25109.11  13979.28  55.67
751.6  25056.94  13994.45  55.85
752.9  24812.33  13914.48  56.08
754.2  24511.78  13813.14  56.35
755.4  24190.11  13711.14  56.68
756.7  24095.29  13719.91  56.94
758.0  24119.44  13800.10  57.22
759.3  24282.67  13960.13  57.49
760.6  24509.10  14155.89  57.76
761.9  24709.31  14340.91  58.04
763.1  24854.26  14472.30  58.23
764.4  25021.13  14618.13  58.42
765.7  25148.50  14740.92  58.62
767.0  25255.87  14855.31  58.82
768.2  25351.20  14960.74  59.01
769.5  25424.49  15055.45  59.22
770.8  25570.26  15179.52  59.36
772.0  25587.81  15251.30  59.60
773.3  25669.17  15337.65  59.75
774.6  25760.75  15435.27  59.92
775.8  25826.13  15521.34  60.10
777.1  25851.30  15580.62  60.27
778.4  25836.83  15617.74  60.45
779.6  25861.37  15663.67  60.57
780.9  25820.00  15691.47  60.77
782.1  25728.02  15685.37  60.97
783.4  25750.40  15729.79  61.09
784.6  25767.74  15787.49  61.27
785.9  25975.04  15957.88  61.44
787.1  26352.59  16234.91  61.61
788.4  26662.70  16438.80  61.65
789.6  26677.46  16431.61  61.59
790.9  26422.83  16293.54  61.66
792.1  26144.60  16162.88  61.82
793.4  25865.12  16033.47  61.99
794.6  25676.57  15952.14  62.13
795.8  25513.36  15893.42  62.29
797.1  25350.08  15832.86  62.46
798.3  25228.50  15796.55  62.61
799.5  25169.97  15790.16  62.73
800.8  25099.23  15777.52  62.86
802.0  25011.42  15759.43  63.01
803.2  24918.76  15726.89  63.11
804.5  24860.18  15710.26  63.19
805.7  24781.04  15691.26  63.32
806.9  24699.71  15667.06  63.43
808.1  24647.73  15662.32  63.54
809.4  24609.13  15665.27  63.66
810.6  24558.63  15661.71  63.77
811.8  24538.32  15689.47  63.94
813.0  24560.28  15718.03  64.00
814.2  24583.06  15764.31  64.13
815.4  24644.79  15826.99  64.22
816.6  24675.27  15867.47  64.31
817.9  24704.84  15897.02  64.35
819.1  24672.89  15881.64  64.37
820.3  24583.02  15837.18  64.42
821.5  24511.70  15815.71  64.52
822.7  24474.49  15809.84  64.60
823.9  24466.74  15824.42  64.68
825.1  24483.13  15830.14  64.66
826.3  24493.16  15844.84  64.69
827.5  24511.03  15861.07  64.71
828.7  24560.16  15878.22  64.65
829.9  24556.61  15880.60  64.67
831.0  24631.50  15924.13  64.65
832.2  24684.15  15955.64  64.64
833.4  24732.69  15988.16  64.64
834.6  24771.09  16030.94  64.72
835.8  24806.25  16069.41  64.78
837.0  24848.21  16125.28  64.90
838.1  24942.61  16199.97  64.95
839.3  24987.97  16248.92  65.03
840.5  25056.73  16305.48  65.07
841.7  25139.84  16383.27  65.17
842.9  25202.72  16465.67  65.33
844.0  25272.39  16531.40  65.41
845.2  25356.92  16607.04  65.49
846.4  25406.55  16670.51  65.62
847.5  25535.27  16764.15  65.65
848.7  25649.51  16850.63  65.70
849.9  25759.43  16930.87  65.73
851.0  25787.85  16964.44  65.78
852.2  25836.49  17002.47  65.81
853.3  25835.02  17008.62  65.84
854.5  25803.13  17013.68  65.94
855.6  25784.28  17021.89  66.02
856.8  25811.14  17062.38  66.10
857.9  25796.36  17059.39  66.13
859.1  25866.40  17123.57  66.20
860.2  25870.46  17146.07  66.28
861.4  25883.89  17185.04  66.39
862.5  25913.95  17216.12  66.44
863.7  25967.63  17260.63  66.47
864.8  25978.23  17280.69  66.52
865.9  25934.02  17276.30  66.62
867.1  25972.57  17301.35  66.61
868.2  25960.64  17313.12  66.69
869.3  25983.57  17321.91  66.66
870.5  25945.69  17308.10  66.71
871.6  25952.82  17318.81  66.73
872.7  25988.86  17356.85  66.79
873.9  26010.48  17372.73  66.79
875.0  25998.57  17355.65  66.76
876.1  25976.68  17349.63  66.79
877.2  25992.15  17363.61  66.80
878.3  25997.76  17353.08  66.75
879.4  26016.59  17366.04  66.75
880.5  26032.32  17374.75  66.74
881.7  26038.68  17364.19  66.69
882.8  26051.76  17373.58  66.69
883.9  26088.59  17375.47  66.60
885.0  26049.66  17344.55  66.58
886.1  26068.54  17317.59  66.43
887.2  25979.14  17243.39  66.37
888.3  25929.87  17182.27  66.26
889.4  25867.81  17119.24  66.18
890.5  25830.84  17068.68  66.08
891.6  25777.28  17040.50  66.11
892.7  25812.52  17017.75  65.93
893.8  25792.32  17022.87  66.00
894.9  25833.34  17011.62  65.85
896.0  25797.95  16991.22  65.86
897.0  25823.30  16982.88  65.77
898.1  25837.83  16967.03  65.67
899.2  25853.12  16956.46  65.59
900.3  25827.20  16912.02  65.48
901.4  25755.93  16855.74  65.44
902.4  25796.28  16854.71  65.34
903.5  25760.57  16800.39  65.22
904.6  25773.48  16788.33  65.14
905.7  25786.56  16763.75  65.01
906.7  25778.44  16740.49  64.94
907.8  25791.16  16722.77  64.84
908.9  25756.23  16673.93  64.74
909.9  25738.83  16641.81  64.66
911.0  25715.27  16591.02  64.52
912.1  25708.69  16521.49  64.26
913.1  25683.06  16476.55  64.15
914.2  25568.28  16392.95  64.11
915.2  25594.38  16350.30  63.88
916.3  25582.28  16304.45  63.73
917.3  25579.53  16251.56  63.53
918.4  25529.08  16161.30  63.31
919.4  25526.52  16087.21  63.02
920.5  25540.93  16024.58  62.74
921.5  25532.64  15971.81  62.55
922.6  25509.72  15875.99  62.24
923.6  25552.64  15838.17  61.98
924.7  25558.13  15770.97  61.71
925.7  25559.01  15696.32  61.41
926.7  25571.07  15622.74  61.10
927.8  25622.74  15550.96  60.69
928.8  25737.00  15521.28  60.31
929.9  25798.01  15464.49  59.94
930.9  25912.02  15436.46  59.57
931.9  26063.45  15418.95  59.16
932.9  26272.00  15432.45  58.74
934.0  26311.65  15356.17  58.36
935.0  26328.00  15255.20  57.94
936.0  26313.67  15136.33  57.52
937.0  26305.79  15024.97  57.12
938.1  26273.03  14916.92  56.78
939.1  26282.27  14806.36  56.34
940.1  26307.38  14733.91  56.01
941.1  26474.98  14689.18  55.48
942.1  26613.43  14667.06  55.11
943.1  26709.35  14608.55  54.69
944.1  26891.46  14567.55  54.17
945.2  26931.87  14450.47  53.66
946.2  27005.05  14360.48  53.18
947.2  27050.94  14261.32  52.72
948.2  27161.01  14176.75  52.20
949.2  27258.97  14064.81  51.60
950.2  27257.00  13948.84  51.18
951.2  27381.90  13830.66  50.51
952.2  27427.92  13703.31  49.96
953.2  27549.11  13611.40  49.41
954.2  27670.16  13520.27  48.86
955.2  27683.23  13394.05  48.38
956.2  27678.04  13284.83  48.00
957.2  27683.31  13206.25  47.70
958.2  27771.67  13127.54  47.27
959.2  27855.45  13096.89  47.02
960.1  27895.78  13028.24  46.70
961.1  27947.74  13018.49  46.58
962.1  27921.09  12981.75  46.49
963.1  28038.72  12963.12  46.23
964.1  28081.62  12972.15  46.19
965.1  28159.91  12971.21  46.06
966.1  28230.04  12960.24  45.91
967.0  28291.66  12959.34  45.81
968.0  28354.15  12954.77  45.69
969.0  28355.00  12984.09  45.79
970.0  28440.42  12985.99  45.66
971.0  28447.07  12995.05  45.68
971.9  28529.94  12999.07  45.56
972.9  28619.85  13003.51  45.44
973.9  28640.46  13041.19  45.53
974.9  28629.25  13071.24  45.66
975.8  28737.28  13078.66  45.51
976.8  28722.61  13084.91  45.56
977.8  28846.97  13131.66  45.52
978.8  28789.28  13159.19  45.71
979.7  28914.30  13230.54  45.76
981.4  29806.10  13755.19  46.15
985.3  29606.90  13789.45  46.58
989.3  29665.19  13926.49  46.95
993.3  29713.32  14078.45  47.38
997.2  29668.74  14192.48  47.84
1001.2  29627.00  14340.39  48.40
1005.2  29568.23  14528.80  49.14
1009.1  29600.49  14765.58  49.88
1013.1  29702.49  15064.56  50.72
1017.1  29789.49  15365.90  51.58
1021.0  29789.99  15608.02  52.39
1025.0  29760.59  15846.29  53.25
1029.0  29636.30  16030.21  54.09
1032.9  29533.53  16226.30  54.94
1036.9  29509.70  16467.57  55.80
1040.9  29556.91  16740.23  56.64
1044.8  29679.34  17034.53  57.40
1048.8  29786.37  17288.60  58.04
1052.7  29868.84  17512.31  58.63
1056.7  29898.31  17660.79  59.07
1060.7  29913.73  17776.45  59.43
1064.6  29918.21  17868.65  59.72
1068.6  29859.11  17877.85  59.87
1072.5  29814.52  17844.83  59.85
1076.5  29798.83  17793.95  59.71
1080.4  29797.49  17723.62  59.48
1084.4  29858.05  17665.87  59.17
1088.3  29928.60  17567.03  58.70
1092.3  29919.24  17391.57  58.13
1096.2  29930.07  17208.51  57.50
1100.2  29956.02  17038.92  56.88
1104.1  29873.92  16796.32  56.22
1108.1  29858.25  16574.89  55.51
1112.0  29809.22  16332.39  54.79
1116.0  29674.06  16019.92  53.99
1119.9  29580.84  15661.44  52.94
1123.9  29636.88  15291.14  51.59
1127.8  29621.76  14755.84  49.81
1131.8  29615.13  14074.14  47.52
1135.7  29658.37  13284.44  44.79
1139.6  29649.41  12424.37  41.90
1143.6  29635.32  11626.79  39.23
1147.5  29635.02  10966.22  37.00
1151.4  29535.85  10440.28  35.35
1155.4  29547.88  10108.71  34.21
1159.3  29582.50  9899.62  33.46
1163.2  29498.44  9722.84  32.96
1167.2  29505.90  9624.08  32.62
1171.1  29517.01  9550.34  32.36
1175.0  29484.53  9468.68  32.11
1179.0  29486.15  9402.94  31.89
1182.9  29537.81  9361.94  31.69
1186.8  29538.86  9315.41  31.54
1190.7  29410.97  9232.78  31.39
1194.7  29255.48  9156.10  31.30
1198.6  29133.72  9110.64  31.27
1202.5  29044.69  9089.78  31.30
1206.4  28972.03  9085.49  31.36
1210.3  28920.11  9104.35  31.48
1214.2  28863.76  9134.02  31.65
1218.2  28763.18  9159.32  31.84
1222.1  28692.28  9189.65  32.03
1226.0  28656.56  9238.19  32.24
1229.9  28600.92  9295.14  32.50
1233.8  28545.33  9335.60  32.70
1237.7  28520.81  9373.21  32.86
1241.6  28465.46  9407.18  33.05
1245.5  28370.21  9417.47  33.19
1249.4  28299.76  9431.26  33.33
1253.3  28232.22  9443.40  33.45
1257.2  28191.00  9451.93  33.53
1261.1  28130.65  9448.81  33.59
1265.0  28057.45  9424.91  33.59
1268.9  27949.80  9371.11  33.53
1272.8  27989.85  9354.65  33.42
1276.7  28109.94  9344.37  33.24
1280.6  28175.48  9296.55  33.00
1284.5  28132.96  9191.52  32.67
1288.4  28112.11  9073.03  32.27
1292.3  28036.25  8916.42  31.80
1296.2  27954.20  8735.46  31.25
1300.1  27848.52  8530.32  30.63
1303.9  27706.57  8291.09  29.92
1307.8  27559.31  8038.46  29.17
1311.7  27397.23  7764.37  28.34
1315.6  27238.78  7473.74  27.44
1319.5  27066.08  7170.11  26.49
1323.3  26913.00  6868.47  25.52
1327.2  26776.06  6578.06  24.57
1331.1  26621.95  6290.69  23.63
1335.0  26429.02  6001.65  22.71
1338.8  26290.11  5747.47  21.86
1342.7  26169.42  5521.18  21.10
1346.5  25929.13  5280.27  20.36
1350.4  25728.90  5071.74  19.71
1354.3  25457.85  4864.72  19.11
1358.1  25158.95  4665.84  18.55
1362.0  24980.59  4481.93  17.94
1365.8  24927.82  4306.92  17.28
1369.7  24996.19  4134.56  16.54
1373.5  24961.93  3898.46  15.62
1377.4  24802.90  3603.67  14.53
1381.2  24660.90  3278.64  13.29
1385.1  24643.85  2966.99  12.04
1389.0  24592.75  2667.95  10.85
1392.8  24461.78  2383.70  9.74
1396.6  24365.22  2153.53  8.84
1400.5  24231.60  1962.40  8.10
1404.3  24125.27  1814.33  7.52
1408.2  24097.32  1704.05  7.07
1412.0  24070.61  1621.14  6.73
1415.8  24101.54  1566.67  6.50
1419.6  24084.23  1517.25  6.30
1423.5  24070.46  1482.87  6.16
1427.3  24053.34  1452.68  6.04
1431.1  24042.83  1432.98  5.96
1434.9  23983.10  1414.59  5.90
1438.8  23944.05  1402.12  5.86
1442.6  23927.04  1393.26  5.82
1446.4  23856.75  1377.62  5.77
1450.2  23800.39  1368.84  5.75
1454.0  23730.24  1361.16  5.74
1457.8  23714.21  1360.01  5.74
1461.6  23699.02  1363.16  5.75
1465.4  23623.88  1365.44  5.78
1469.2  23507.58  1372.59  5.84
1473.0  23416.67  1381.38  5.90
1476.8  23385.95  1401.73  5.99
1480.7  23341.52  1425.90  6.11
1484.4  23269.68  1453.88  6.25
1488.2  23205.84  1491.12  6.43
1492.0  23119.76  1530.40  6.62
1495.8  23050.30  1564.44  6.79
1499.6  22974.60  1589.99  6.92
1503.4  22886.86  1605.41  7.01
1507.2  22817.82  1613.40  7.07
1510.9  22736.47  1620.58  7.13
1514.7  22640.13  1632.38  7.21
1518.5  22563.41  1649.98  7.31
1522.3  22469.97  1662.25  7.40
1526.0  22400.45  1683.37  7.51
1529.8  22366.84  1715.76  7.67
1533.6  22289.14  1756.65  7.88
1537.3  22206.85  1797.55  8.09
1541.1  22117.21  1832.69  8.29
1544.8  22039.20  1864.80  8.46
1548.6  21965.35  1898.36  8.64
1552.4  21895.60  1930.38  8.82
1556.1  21841.83  1953.71  8.94
1559.9  21787.79  1977.44  9.08
1563.6  21716.01  2005.17  9.23
1567.3  21641.45  2033.89  9.40
1571.1  21503.94  2064.82  9.60
1574.8  21413.78  2102.95  9.82
1578.6  21355.88  2133.28  9.99
1582.3  21274.05  2157.27  10.14
1586.0  21183.04  2179.56  10.29
1589.8  21100.62  2199.89  10.43
1593.5  21000.69  2209.04  10.52
1597.2  20929.52  2219.33  10.60
1600.9  20843.62  2234.79  10.72
1604.7  20745.10  2250.01  10.85
1608.4  20669.95  2267.25  10.97
1612.1  20567.28  2285.25  11.11
1615.8  20477.47  2296.93  11.22
1619.5  20422.34  2310.39  11.31
1623.2  20328.29  2331.92  11.47
1626.9  20221.28  2341.27  11.58
1630.6  20112.62  2349.01  11.68
1634.3  20025.88  2359.16  11.78
1638.0  19934.15  2357.96  11.83
1641.7  19830.91  2362.77  11.91
1645.4  19716.98  2363.68  11.99
1649.1  19602.77  2360.37  12.04
1652.8  19509.95  2360.90  12.10
1656.4  19395.62  2349.20  12.11
1660.1  19295.18  2342.32  12.14
1663.8  19185.10  2339.88  12.20
1667.5  19083.74  2330.50  12.21
1671.1  18996.35  2314.98  12.19
1674.8  18876.30  2294.89  12.16
1678.5  18838.56  2284.81  12.13
1682.1  18849.73  2277.01  12.08
1685.8  18859.30  2265.15  12.01
1689.5  18795.30  2244.85  11.94
1693.1  18706.41  2227.01  11.91
1696.8  18615.25  2205.59  11.85
1700.4  18529.58  2181.12  11.77
1704.0  18456.67  2159.18  11.70
1707.7  18296.86  2118.15  11.58
1711.3  18114.51  2071.84  11.44
1715.0  17992.28  2033.95  11.30
1718.6  17886.14  1998.26  11.17
1722.2  17799.94  1969.74  11.07
1725.9  17706.59  1934.42  10.92
1729.5  17604.49  1903.97  10.82
1733.1  17541.49  1879.22  10.71
1736.7  17471.92  1855.23  10.62
1740.3  17366.15  1829.78  10.54
1744.0  17315.89  1804.19  10.42
1747.5  17227.16  1774.12  10.30
1751.2  17088.52  1733.62  10.14
1754.8  16976.43  1691.76  9.97
1758.4  16893.02  1660.06  9.83
1762.0  16789.89  1630.89  9.71
1765.5  16699.11  1604.61  9.61
1769.1  16665.60  1592.00  9.55
1772.7  16620.17  1578.49  9.50
1776.3  16550.18  1557.41  9.41
1779.9  16477.44  1540.67  9.35
1783.5  16434.96  1529.33  9.31
1787.0  16345.96  1511.90  9.25
1790.6  16243.66  1494.88  9.20
1794.2  16171.99  1481.54  9.16
1797.8  16109.35  1476.31  9.16
1801.3  16053.66  1473.66  9.18
1804.9  15954.75  1466.50  9.19
1808.4  15901.90  1460.83  9.19
1812.0  15801.30  1448.91  9.17
1815.5  15695.88  1441.89  9.19
1819.1  15574.16  1431.42  9.19
1822.6  15471.85  1420.87  9.18
1826.2  15387.58  1407.32  9.15
1829.7  15274.18  1394.93  9.13
1833.2  15120.13  1376.80  9.11
1836.8  14969.50  1348.32  9.01
1840.3  14877.77  1330.43  8.94
1843.8  14800.45  1313.69  8.88
1847.3  14738.02  1292.36  8.77
1850.8  14668.42  1270.08  8.66
1854.3  14577.15  1239.00  8.50
1857.8  14534.00  1215.07  8.36
1861.3  14522.25  1176.52  8.10
1864.8  14459.04  1120.13  7.75
1868.3  14308.06  1050.34  7.34
1871.8  14215.68  975.36  6.86
1875.3  14201.46  910.15  6.41
1878.8  14176.42  848.16  5.98
1882.3  14122.90  793.74  5.62
1885.8  14014.10  762.95  5.44
1889.3  13904.45  714.55  5.14
1892.7  13776.82  696.52  5.06
1896.2  13660.15  701.02  5.13
1899.7  13554.20  688.08  5.08
1901.7  12667.81  519.26  4.10
1904.5  12785.93  514.89  4.03
1907.2  12706.25  525.67  4.14
1910.0  12637.10  502.95  3.98
1912.7  12646.53  495.08  3.91
1915.5  12573.30  506.79  4.03
1918.2  12524.17  490.23  3.91
1921.0  12429.58  474.49  3.82
1923.7  12476.24  493.58  3.96
1926.5  12456.75  483.07  3.88
1929.2  12429.04  478.86  3.85
1932.0  12425.12  495.07  3.98
1934.7  12406.61  488.80  3.94
1937.4  12332.23  482.82  3.92
1940.2  12287.19  487.64  3.97
1942.9  12341.39  488.22  3.96
1945.6  12357.84  476.15  3.85
1948.3  12310.10  474.31  3.85
1951.1  12286.82  466.55  3.80
1953.8  12285.00  475.00  3.87
1956.5  12213.61  493.18  4.04
1959.2  12244.05  488.37  3.99
1961.9  12277.60  468.85  3.82
1964.6  12227.25  487.90  3.99
1967.3  12243.43  491.48  4.01
1970.0  12130.08  476.56  3.93
1972.8  12063.78  502.04  4.16
1975.5  12116.40  494.60  4.08
1978.2  12077.12  478.88  3.97
1980.9  11995.23  480.98  4.01
1983.5  11947.43  505.08  4.23
1986.2  11960.10  501.49  4.19
1988.9  11951.37  493.73  4.13
1991.6  11858.95  497.26  4.19
1994.3  11764.18  491.02  4.17
1997.0  11766.88  498.82  4.24
1999.7  11773.83  497.76  4.23
2002.3  11759.81  508.21  4.32
2005.0  11690.77  512.05  4.38
2007.7  11638.67  497.84  4.28
2010.4  11594.16  494.87  4.27
2013.0  11562.08  518.74  4.49
2015.7  11497.38  503.92  4.38
2018.4  11428.93  479.40  4.19
2021.0  11415.50  500.56  4.38
2023.7  11337.76  505.97  4.46
2026.4  11289.20  502.30  4.45
2029.0  11241.04  512.66  4.56
2031.7  11159.63  518.27  4.64
2034.3  11170.90  515.45  4.61
2037.0  11088.29  511.40  4.61
2039.6  11036.71  502.65  4.55
2042.3  11025.52  497.08  4.51
2044.9  10984.38  511.45  4.66
2047.5  10945.11  530.15  4.84
2050.2  10866.80  505.87  4.66
2052.8  10875.20  501.20  4.61
2055.4  10794.82  516.44  4.78
2058.1  10693.20  501.20  4.69
2060.7  10690.88  514.28  4.81
2063.3  10636.71  528.54  4.97
2065.9  10588.79  509.01  4.81
2068.6  10527.38  512.74  4.87
2071.2  10509.93  523.59  4.98
2073.8  10479.76  521.42  4.98
2076.4  10429.57  522.98  5.01
2079.0  10413.86  517.04  4.96
2081.6  10426.21  524.22  5.03
2084.2  10409.13  525.77  5.05
2086.8  10317.76  512.87  4.97
2089.4  10237.53  510.60  4.99
2092.1  10185.83  527.00  5.17
2094.7  10161.53  529.22  5.21
2097.2  10134.83  520.39  5.13
2099.8  10154.06  531.38  5.23
2102.4  10079.62  533.60  5.29
2105.0  9975.00  522.50  5.24
2107.6  9943.53  521.24  5.24
2110.2  9903.21  533.29  5.39
2112.8  9887.09  518.26  5.24
2115.3  9921.47  521.53  5.26
2117.9  9932.41  539.71  5.43
2120.5  9899.34  537.33  5.43
2123.1  9860.18  544.05  5.52
2125.6  9830.42  535.89  5.45
2128.2  9760.43  532.65  5.46
2130.8  9696.38  546.98  5.64
2133.3  9680.00  542.67  5.61
2135.9  9631.02  532.44  5.53
2138.4  9558.99  537.27  5.62
2141.0  9487.88  529.88  5.58
2143.6  9445.83  532.59  5.64
2146.1  9343.90  539.67  5.78
2148.7  9250.50  522.73  5.65
2151.2  9289.87  531.91  5.73
2153.8  9283.27  534.71  5.76
2156.3  9196.68  536.52  5.83
2158.8  9167.15  527.66  5.76
2161.4  9136.89  538.56  5.89
2163.9  9080.87  536.60  5.91
2166.4  9038.53  512.49  5.67
2169.0  9026.70  543.04  6.02
2171.5  8964.61  534.17  5.96
2174.0  8877.40  514.68  5.80
2176.5  8859.37  538.20  6.07
2179.1  8821.17  529.05  6.00
2181.6  8799.54  506.95  5.76
2184.1  8784.16  507.17  5.77
2186.6  8784.20  522.01  5.94
2189.1  8744.04  525.37  6.01
2191.6  8708.93  518.31  5.95
2194.1  8706.09  511.54  5.88
2196.6  8712.45  507.24  5.82
2199.2  8755.72  513.95  5.87
2201.7  8703.45  514.57  5.91
2204.1  8678.72  493.55  5.69
2206.6  8675.98  509.77  5.88
2209.1  8675.22  532.43  6.14
2211.6  8663.97  513.90  5.93
2214.1  8610.78  532.23  6.18
2216.6  8633.61  530.50  6.14
2219.1  8660.20  502.64  5.80
2221.6  8580.23  512.63  5.97
2224.0  8522.97  509.27  5.98
2226.5  8511.79  493.38  5.80
2229.0  8530.74  505.02  5.92
2231.5  8441.32  494.07  5.85
2233.9  8443.24  482.33  5.71
2236.4  8476.56  496.65  5.86
2238.9  8385.50  493.42  5.88
2241.3  8391.31  471.58  5.62
2243.8  8383.54  481.95  5.75
2246.2  8253.42  492.34  5.97
2248.7  8237.84  455.09  5.52
2251.2  8236.26  444.54  5.40
2253.6  8194.56  462.08  5.64
2256.1  8190.72  450.56  5.50
2258.5  8190.43  450.76  5.50
2260.9  8134.04  451.25  5.55
2263.4  8110.40  431.18  5.32
2265.8  8131.85  459.03  5.64
2268.3  8069.96  448.97  5.56
2270.7  8098.88  411.98  5.09
2273.1  8065.01  430.80  5.34
2275.6  8029.44  430.08  5.36
2278.0  8032.57  416.36  5.18
2280.4  8050.71  425.88  5.29
2282.8  7960.15  407.82  5.12
2285.3  7901.09  401.80  5.09
2287.7  7985.73  420.44  5.26
2290.1  7946.20  392.70  4.94
2292.5  7920.79  369.06  4.66
2294.9  7927.04  395.17  4.99
2297.3  7846.72  410.01  5.23
2299.7  7809.80  402.73  5.16
2302.1  7774.17  400.69  5.15
2304.5  7698.88  376.32  4.89
2306.9  7651.84  352.80  4.61
2309.3  7605.49  361.79  4.76
2311.7  7551.70  348.02  4.61
2314.1  7431.64  362.33  4.88
2316.5  7403.26  380.87  5.14
2318.9  7422.16  346.87  4.67
2321.3  7384.55  348.63  4.72
2323.7  7411.63  380.70  5.14
2326.1  7407.14  382.85  5.17
2328.4  7416.57  345.81  4.66
2330.8  7456.07  350.38  4.70
2333.2  7380.05  354.18  4.80
2335.6  7348.45  348.74  4.75
2337.9  7374.28  356.13  4.83
2340.3  7351.28  348.46  4.74
2342.7  7303.86  334.31  4.58
2345.0  7304.27  363.80  4.98
2347.4  7310.00  348.50  4.77
2349.7  7167.86  318.95  4.45
2352.1  7105.77  350.22  4.93
2354.4  7122.34  323.81  4.55
2356.8  7109.55  317.99  4.47
2359.2  7054.67  338.00  4.79
2361.5  7016.24  330.16  4.71
2363.8  7061.80  335.23  4.75
2366.2  7030.44  339.83  4.83
2368.5  6995.40  314.47  4.50
2370.9  6987.35  310.15  4.44
2373.2  6974.33  305.77  4.38
2375.5  6914.20  312.23  4.52
2377.9  6855.73  306.93  4.48
2380.2  6895.41  297.81  4.32
2382.5  6832.77  326.25  4.77
2384.8  6779.04  323.25  4.77
2387.2  6826.21  300.05  4.40
2389.5  6803.92  295.89  4.35
2391.8  6773.50  296.29  4.37
2394.1  6708.07  300.70  4.48
2396.4  6696.25  291.91  4.36
2398.7  6727.77  254.95  3.79
2401.0  6675.75  270.33  4.05
2403.3  6633.36  278.88  4.20
2405.6  6587.80  244.92  3.72
2407.9  6548.07  285.57  4.36
2410.2  6522.35  299.13  4.59
2412.5  6494.37  272.72  4.20
2414.8  6495.78  275.58  4.24
2417.1  6477.89  275.29  4.25
2419.4  6418.72  263.97  4.11
2421.7  6381.59  273.35  4.28
2424.0  6340.00  288.82  4.56
2426.2  6377.20  255.02  4.00
2428.5  6376.43  268.62  4.21
2430.8  6305.65  276.13  4.38
2433.1  6272.91  230.49  3.67
2435.4  6216.05  264.83  4.26
2437.6  6193.67  279.75  4.52
2439.9  6131.58  243.32  3.97
2442.2  6143.40  261.66  4.26
2444.4  6156.85  266.11  4.32
2446.7  6096.96  233.60  3.83
2448.9  6140.77  240.82  3.92
2451.2  6097.08  242.37  3.98
2453.4  6044.75  247.09  4.09
2455.7  6045.18  263.54  4.36
2457.9  5958.48  248.27  4.17
2460.2  5967.72  244.55  4.10
2462.4  5959.20  245.44  4.12
2464.7  5866.75  216.58  3.69
2466.9  5842.20  216.14  3.70
2469.2  5878.87  237.66  4.04
2471.4  5796.90  247.29  4.27
2473.6  5704.14  245.49  4.30
2475.9  5730.24  209.97  3.66
2478.1  5690.78  232.28  4.08
2480.3  5611.10  257.58  4.59
2482.5  5590.00  233.51  4.18
2484.8  5592.32  218.45  3.91
2487.0  5577.22  180.23  3.23
2489.2  5540.68  183.43  3.31
2491.4  5525.52  230.55  4.17
2493.6  5479.00  214.25  3.91
2495.8  5487.41  224.35  4.09
2498.0  5504.43  245.90  4.47
2500.2  5484.68  188.16  3.43
2502.4  5700.96  227.92  4.00
2504.6  5765.46  237.88  4.13
2506.8  5747.58  146.13  2.54
