/*** Spectra Vista SIG Data ***/
name= BDT.sig
comm= Averaged Ref/Tar of files: BDT1,BDT2,BDT3
data=
346.4  509.60  334.43  65.63
347.9  549.06  352.45  64.19
349.5  608.40  377.52  62.05
351.1  655.20  413.92  63.17
352.6  708.40  439.59  62.05
354.2  752.68  473.42  62.90
355.7  818.30  515.23  62.96
357.3  873.81  551.33  63.10
358.8  891.23  566.19  63.53
360.4  967.31  601.49  62.18
361.9  1009.93  623.37  61.72
363.5  1059.53  659.03  62.20
365.1  1102.67  676.17  61.32
366.6  1156.59  715.82  61.89
368.2  1218.77  758.80  62.26
369.7  1306.00  791.22  60.58
371.3  1379.56  840.69  60.94
372.8  1457.48  888.65  60.97
374.4  1528.58  931.16  60.92
375.9  1575.56  966.52  61.34
377.4  1632.76  996.35  61.02
379.0  1683.54  1034.31  61.44
380.5  1741.87  1058.66  60.78
382.1  1805.51  1093.35  60.56
383.6  1862.60  1130.22  60.68
385.2  1949.75  1177.92  60.41
386.7  2036.04  1237.33  60.77
388.3  2135.96  1289.91  60.39
389.8  2212.47  1350.54  61.04
391.3  2314.34  1406.43  60.77
392.9  2392.65  1451.90  60.68
394.4  2474.90  1505.51  60.83
395.9  2552.82  1556.39  60.97
397.5  2664.75  1640.84  61.58
399.0  2774.82  1708.77  61.58
400.6  2852.64  1745.17  61.18
402.1  2910.24  1766.44  60.70
403.6  2965.71  1798.13  60.63
405.1  3036.77  1837.90  60.52
406.7  3133.76  1906.24  60.83
408.2  3234.33  1965.40  60.77
409.7  3330.88  2018.99  60.61
411.3  3437.91  2080.04  60.50
412.8  3528.93  2136.95  60.56
414.3  3634.54  2201.94  60.58
415.8  3740.00  2265.83  60.58
417.4  3868.37  2325.07  60.10
418.9  3954.39  2384.10  60.29
420.4  4037.85  2430.19  60.19
421.9  4106.74  2472.43  60.20
423.5  4196.00  2507.01  59.75
425.0  4263.51  2549.41  59.80
426.5  4364.50  2607.95  59.75
428.0  4488.82  2671.67  59.52
429.5  4615.58  2751.18  59.61
431.1  4756.23  2841.23  59.74
432.6  4917.76  2947.83  59.94
434.1  5064.68  3044.07  60.10
435.6  5199.35  3132.77  60.25
437.1  5333.25  3218.15  60.34
438.6  5454.84  3301.20  60.52
440.1  5584.70  3386.11  60.63
441.6  5717.14  3467.66  60.65
443.1  5852.25  3553.20  60.72
444.7  5982.11  3638.04  60.82
446.2  6104.50  3713.92  60.84
447.7  6213.60  3782.10  60.87
449.2  6315.84  3863.52  61.17
450.7  6414.72  3924.96  61.19
452.2  6543.45  3995.50  61.06
453.7  6682.65  4082.60  61.09
455.2  6842.54  4185.94  61.18
456.7  7029.44  4318.45  61.43
458.2  7231.16  4458.46  61.66
459.7  7428.75  4614.17  62.11
461.2  7633.63  4761.38  62.37
462.7  7815.14  4898.63  62.68
464.2  8000.76  5044.09  63.05
465.7  8191.53  5186.91  63.32
467.2  8352.58  5317.49  63.66
468.7  8552.00  5454.00  63.77
470.2  8711.17  5577.13  64.02
471.7  8854.00  5744.34  64.88
473.2  9050.37  5963.17  65.89
474.6  9252.88  6125.64  66.20
476.1  9378.88  6188.99  65.99
477.6  9464.51  6256.82  66.11
479.1  9567.20  6345.14  66.32
480.6  9658.16  6443.00  66.71
482.1  9797.74  6576.48  67.12
483.6  9963.22  6737.18  67.62
485.1  10140.49  6916.33  68.21
486.6  10356.19  7131.48  68.86
488.0  10562.50  7356.38  69.65
489.5  10784.97  7597.50  70.45
491.0  10998.86  7845.89  71.33
492.5  11224.98  8101.62  72.17
494.0  11462.99  8369.02  73.01
495.4  11663.85  8616.85  73.88
496.9  11870.36  8873.82  74.76
498.4  12074.30  9131.60  75.63
499.9  12278.41  9393.01  76.50
501.4  12476.75  9651.02  77.35
502.8  12664.51  9903.55  78.20
504.3  12846.60  10141.20  78.94
505.8  13033.73  10385.68  79.68
507.2  13172.68  10580.63  80.32
508.7  13289.99  10751.11  80.90
510.2  13412.81  10908.46  81.33
511.6  13494.72  11046.73  81.86
513.1  13630.43  11215.64  82.28
514.6  13795.53  11386.79  82.54
516.0  13946.28  11545.26  82.78
517.5  14135.83  11755.35  83.16
519.0  14365.19  11985.57  83.43
520.5  14579.60  12205.97  83.72
521.9  14828.55  12468.39  84.08
523.4  15093.49  12749.37  84.47
524.8  15349.14  13030.29  84.89
526.3  15633.70  13332.36  85.28
527.8  15915.89  13632.54  85.65
529.2  16178.21  13902.44  85.93
530.7  16455.24  14197.67  86.28
532.1  16698.15  14461.53  86.61
533.6  16994.07  14757.80  86.84
535.0  17295.55  15052.54  87.03
536.5  17581.25  15343.38  87.27
538.0  17895.84  15643.07  87.41
539.4  18160.64  15923.56  87.68
540.9  18488.86  16264.31  87.97
542.3  18738.28  16559.48  88.37
543.8  18940.29  16765.43  88.52
545.2  19020.35  16839.56  88.53
546.6  19057.19  16866.27  88.50
548.1  19121.11  16903.56  88.40
549.5  19166.91  16933.64  88.35
551.0  19217.70  16951.43  88.21
552.4  19311.21  17001.49  88.04
553.9  19371.38  17028.27  87.90
555.3  19461.20  17073.81  87.73
556.8  19596.88  17174.47  87.64
558.2  19743.75  17273.25  87.49
559.6  19902.71  17394.77  87.40
561.1  20117.50  17566.79  87.32
562.5  20332.52  17754.63  87.32
564.0  20611.34  18000.85  87.33
565.4  20865.50  18227.37  87.36
566.8  21177.73  18512.92  87.42
568.3  21463.05  18779.84  87.50
569.7  21776.78  19067.02  87.56
571.1  22080.65  19348.39  87.63
572.6  22373.82  19623.06  87.71
574.0  22675.95  19896.25  87.74
575.4  22958.44  20153.82  87.78
576.9  23231.09  20397.88  87.80
578.3  23477.03  20620.01  87.83
579.7  23721.74  20829.18  87.81
581.1  23920.49  20994.68  87.77
582.6  24132.47  21175.58  87.75
584.0  24305.80  21333.56  87.77
585.4  24549.94  21549.67  87.78
586.8  24845.17  21841.57  87.91
588.3  25201.80  22159.80  87.93
589.7  25517.70  22430.46  87.90
591.1  25735.55  22602.73  87.83
592.5  25883.00  22683.83  87.64
594.0  25998.42  22733.54  87.44
595.4  26057.54  22727.95  87.22
596.8  26115.38  22727.71  87.03
598.2  26174.55  22719.78  86.80
599.6  26202.06  22705.14  86.65
601.0  26298.70  22743.15  86.48
602.4  26372.18  22788.21  86.41
603.9  26501.77  22873.22  86.31
605.3  26625.41  22976.04  86.29
606.7  26749.80  23064.60  86.22
608.1  26941.18  23242.24  86.27
609.5  27151.69  23437.84  86.32
610.9  27387.74  23677.26  86.45
612.3  27589.20  23894.59  86.61
613.7  27871.80  24198.20  86.82
615.1  28061.64  24404.22  86.97
616.5  28235.16  24616.96  87.19
617.9  28534.12  24942.92  87.41
619.3  28808.15  25249.33  87.65
620.7  29149.14  25621.44  87.90
622.1  29527.66  26013.69  88.10
623.5  29951.83  26469.16  88.37
624.9  30436.35  26994.71  88.69
626.3  30757.12  27352.51  88.93
627.7  30461.43  27117.00  89.02
629.1  30188.34  26882.63  89.05
630.5  30083.03  26791.74  89.06
631.9  30076.12  26816.08  89.16
633.3  30078.24  26819.34  89.17
634.7  30183.54  26939.08  89.25
636.1  30268.81  27000.77  89.20
637.5  30374.19  27078.98  89.15
638.9  30520.15  27189.30  89.09
640.2  30643.60  27286.19  89.04
641.6  30733.56  27316.38  88.88
643.0  30777.50  27276.76  88.63
644.4  30869.16  27261.49  88.31
645.8  30855.38  27173.18  88.07
647.2  31023.20  27263.86  87.88
648.5  31185.15  27321.76  87.61
649.9  31117.13  27174.36  87.33
651.3  31099.80  27063.15  87.02
652.7  31059.00  26864.25  86.49
654.1  30961.56  26671.32  86.14
655.5  30829.51  26508.76  85.99
656.8  30685.81  26352.00  85.88
658.2  30861.69  26512.84  85.91
659.6  31181.89  26828.93  86.04
660.9  31452.29  27075.68  86.08
662.3  31767.46  27317.99  85.99
663.7  32102.70  27552.70  85.83
665.0  32334.98  27761.12  85.85
666.4  32575.38  27957.35  85.82
667.8  32873.84  28214.47  85.83
669.1  33084.01  28432.32  85.94
670.5  33327.47  28681.47  86.06
671.9  33513.12  28838.12  86.05
673.2  33742.50  29052.64  86.10
674.6  33950.66  29249.50  86.15
676.0  34219.05  29484.77  86.16
677.3  34494.18  29727.35  86.18
678.7  34767.13  29983.75  86.24
680.0  35103.31  30336.70  86.42
681.4  35420.13  30711.64  86.71
682.8  35763.00  31068.16  86.87
684.1  36073.44  31434.00  87.14
685.5  36318.59  31758.65  87.44
686.8  36607.26  32077.58  87.63
688.2  36844.31  32359.83  87.83
689.5  36898.97  32469.95  88.00
690.9  36950.15  32537.22  88.06
692.2  37008.15  32600.05  88.09
693.6  37024.93  32667.80  88.23
694.9  37005.38  32626.94  88.17
696.2  37027.13  32662.88  88.21
697.6  37047.86  32687.60  88.23
698.9  37049.76  32723.68  88.32
700.3  37075.62  32765.35  88.37
701.6  37124.24  32823.67  88.42
703.0  37178.40  32886.55  88.46
704.3  37172.20  32901.38  88.51
705.6  37157.22  32881.08  88.49
707.0  37168.46  32893.38  88.50
708.3  37076.04  32802.85  88.47
709.6  36967.81  32707.66  88.48
711.0  36867.73  32578.01  88.36
712.3  36770.31  32413.21  88.15
713.6  36755.88  32337.06  87.98
714.9  36684.64  32221.14  87.83
716.3  36701.44  32169.40  87.65
717.6  36734.04  32130.75  87.47
718.9  36680.73  32010.65  87.27
720.2  36496.25  31806.67  87.15
721.6  36394.28  31634.20  86.92
722.9  36240.12  31419.53  86.70
724.2  36067.30  31147.75  86.36
725.5  35963.70  30923.42  85.99
726.8  35833.96  30700.52  85.67
728.1  35810.80  30541.24  85.28
729.5  35779.10  30372.60  84.89
730.8  35779.13  30213.79  84.45
732.1  35704.25  30039.45  84.13
733.4  35690.92  29890.38  83.75
734.7  35685.89  29752.05  83.37
736.0  35729.66  29676.56  83.06
737.3  35717.44  29563.51  82.77
738.6  35830.21  29584.58  82.57
739.9  36014.88  29681.22  82.41
741.2  36161.58  29762.46  82.30
742.5  36363.94  29941.19  82.34
743.8  36737.66  30273.51  82.40
745.1  37309.08  30791.92  82.53
746.4  37926.98  31405.16  82.80
747.7  38536.99  32048.79  83.16
749.0  39118.92  32670.49  83.52
750.3  39493.02  33025.15  83.62
751.6  39440.80  32954.07  83.55
752.9  39084.79  32598.28  83.40
754.2  38731.25  32207.14  83.16
755.4  38386.91  31796.05  82.83
756.7  38244.09  31643.88  82.74
758.0  38261.36  31651.33  82.72
759.3  38489.95  31854.49  82.76
760.6  38786.44  32132.61  82.84
761.9  39062.28  32380.44  82.89
763.1  39197.21  32533.83  83.00
764.4  39371.54  32723.14  83.11
765.7  39490.75  32861.83  83.21
767.0  39577.16  32975.46  83.32
768.2  39644.64  33070.24  83.42
769.5  39697.68  33147.48  83.50
770.8  39836.32  33306.63  83.61
772.0  39856.44  33340.73  83.65
773.3  39898.95  33418.68  83.76
774.6  39978.84  33502.99  83.80
775.8  40054.79  33602.62  83.89
777.1  40085.96  33640.72  83.92
778.4  40059.57  33604.71  83.89
779.6  39999.54  33601.50  84.00
780.9  39948.00  33550.67  83.99
782.1  39837.20  33433.87  83.93
783.4  39802.88  33440.85  84.02
784.6  39851.08  33463.89  83.97
785.9  40095.40  33711.65  84.08
787.1  40531.58  34198.42  84.37
788.4  40834.19  34630.47  84.81
789.6  40796.10  34633.54  84.89
790.9  40479.11  34327.27  84.80
792.1  40128.24  33953.41  84.61
793.4  39739.41  33625.78  84.62
794.6  39507.48  33393.90  84.53
795.8  39314.07  33209.78  84.47
797.1  39097.95  33005.58  84.42
798.3  38940.83  32865.12  84.40
799.5  38821.14  32792.65  84.47
800.8  38733.05  32706.70  84.44
802.0  38591.76  32625.36  84.54
803.2  38469.72  32510.85  84.51
804.5  38377.94  32441.40  84.53
805.7  38264.87  32353.97  84.55
806.9  38181.95  32249.68  84.46
808.1  38074.65  32179.61  84.52
809.4  38033.33  32151.21  84.53
810.6  37951.55  32063.85  84.49
811.8  37942.61  32034.93  84.43
813.0  37965.80  32034.41  84.38
814.2  37975.49  32046.57  84.39
815.4  38039.93  32139.86  84.49
816.6  38032.65  32142.36  84.51
817.9  38050.16  32175.85  84.56
819.1  37997.24  32100.55  84.48
820.3  37865.18  31952.61  84.39
821.5  37787.61  31840.16  84.26
822.7  37714.41  31746.00  84.17
823.9  37704.87  31686.98  84.04
825.1  37688.07  31620.81  83.90
826.3  37716.38  31550.69  83.65
827.5  37726.06  31494.47  83.48
828.7  37779.60  31432.08  83.20
829.9  37796.29  31361.25  82.97
831.0  37849.02  31324.12  82.76
832.2  37913.75  31305.11  82.57
833.4  37950.44  31278.76  82.42
834.6  37978.13  31264.06  82.32
835.8  38031.53  31279.50  82.25
837.0  38073.26  31311.35  82.24
838.1  38178.69  31373.17  82.17
839.3  38239.24  31388.77  82.09
840.5  38296.24  31450.11  82.12
841.7  38381.58  31515.12  82.11
842.9  38485.06  31583.08  82.07
844.0  38543.94  31643.11  82.10
845.2  38626.85  31736.02  82.16
846.4  38724.98  31799.83  82.12
847.5  38888.12  31936.94  82.13
848.7  39002.30  32059.07  82.20
849.9  39141.74  32169.46  82.19
851.0  39173.78  32212.01  82.23
852.2  39245.07  32232.04  82.13
853.3  39202.67  32218.25  82.18
854.5  39188.19  32186.80  82.13
855.6  39170.88  32162.01  82.11
856.8  39193.80  32164.16  82.06
857.9  39192.81  32134.30  81.99
859.1  39326.60  32194.53  81.86
860.2  39300.24  32180.81  81.88
861.4  39344.78  32187.71  81.81
862.5  39384.29  32177.72  81.70
863.7  39467.66  32211.27  81.61
864.8  39454.45  32179.35  81.56
865.9  39398.65  32124.85  81.54
867.1  39448.45  32101.08  81.37
868.2  39441.53  32076.52  81.33
869.3  39465.67  32055.57  81.22
870.5  39438.89  31959.75  81.04
871.6  39473.54  31933.00  80.90
872.7  39541.37  31925.84  80.74
873.9  39548.50  31913.97  80.70
875.0  39546.05  31834.62  80.50
876.1  39583.15  31793.35  80.32
877.2  39616.79  31755.57  80.16
878.3  39601.98  31687.43  80.01
879.4  39662.11  31677.19  79.87
880.5  39702.60  31665.48  79.76
881.7  39698.10  31586.10  79.57
882.8  39775.46  31582.59  79.40
883.9  39785.32  31564.95  79.34
885.0  39766.55  31441.18  79.06
886.1  39735.85  31372.92  78.95
887.2  39664.66  31220.47  78.71
888.3  39567.00  31081.08  78.55
889.4  39535.02  30963.40  78.32
890.5  39459.91  30851.13  78.18
891.6  39428.33  30718.61  77.91
892.7  39429.01  30665.00  77.77
893.8  39492.50  30604.34  77.49
894.9  39505.51  30548.98  77.33
896.0  39527.49  30454.00  77.05
897.0  39487.40  30408.78  77.01
898.1  39490.45  30329.88  76.80
899.2  39536.22  30295.85  76.63
900.3  39503.73  30160.68  76.35
901.4  39454.09  30058.02  76.18
902.4  39461.49  29978.86  75.97
903.5  39418.10  29859.89  75.75
904.6  39431.18  29813.66  75.61
905.7  39454.64  29747.70  75.40
906.7  39397.52  29662.95  75.29
907.8  39514.80  29603.82  74.92
908.9  39443.33  29486.13  74.76
909.9  39411.21  29388.38  74.57
911.0  39357.50  29259.04  74.34
912.1  39280.99  29108.33  74.10
913.1  39233.48  28984.63  73.88
914.2  39173.92  28796.37  73.51
915.2  39170.79  28671.30  73.20
916.3  39094.50  28558.75  73.05
917.3  39076.47  28431.80  72.76
918.4  39031.30  28269.54  72.43
919.4  39022.48  28132.80  72.09
920.5  39026.74  27959.87  71.64
921.5  39018.63  27834.19  71.34
922.6  38959.72  27637.28  70.94
923.6  39026.05  27486.03  70.43
924.7  39022.50  27315.75  70.00
925.7  39030.84  27113.80  69.47
926.7  39009.32  26960.60  69.11
927.8  39032.57  26793.79  68.64
928.8  39142.62  26665.77  68.12
929.9  39330.10  26532.84  67.46
930.9  39447.46  26431.52  67.00
931.9  39602.61  26305.64  66.42
932.9  39864.58  26235.16  65.81
934.0  39909.81  26063.63  65.31
935.0  39942.68  25835.09  64.68
936.0  39929.50  25600.99  64.12
937.0  39883.94  25332.39  63.52
938.1  39848.52  25076.54  62.93
939.1  39753.89  24812.14  62.41
940.1  39867.76  24660.39  61.86
941.1  39995.43  24506.58  61.27
942.1  40229.45  24370.13  60.58
943.1  40393.76  24219.35  59.96
944.1  40552.56  24077.81  59.37
945.2  40570.32  23830.94  58.74
946.2  40685.67  23614.58  58.04
947.2  40740.25  23357.21  57.33
948.2  40874.09  23147.48  56.63
949.2  40954.06  22891.92  55.90
950.2  41026.00  22620.50  55.14
951.2  41012.16  22362.48  54.53
952.2  41170.94  22101.17  53.68
953.2  41257.13  21855.92  52.97
954.2  41395.95  21607.50  52.20
955.2  41401.94  21415.33  51.73
956.2  41391.82  21165.56  51.13
957.2  41524.97  20967.37  50.49
958.2  41486.28  20862.73  50.29
959.2  41625.00  20718.15  49.77
960.1  41647.94  20611.22  49.49
961.1  41725.78  20535.05  49.21
962.1  41752.50  20466.56  49.02
963.1  41720.60  20389.04  48.87
964.1  41837.60  20352.25  48.65
965.1  41932.95  20359.03  48.55
966.1  41961.44  20347.92  48.49
967.0  42058.17  20297.43  48.26
968.0  42094.69  20302.46  48.23
969.0  42115.20  20322.87  48.26
970.0  42092.26  20343.49  48.33
971.0  42266.18  20309.03  48.05
971.9  42275.33  20342.54  48.12
972.9  42388.85  20374.84  48.07
973.9  42492.13  20385.95  47.98
974.9  42580.28  20387.91  47.88
975.8  42630.52  20435.40  47.94
976.8  42806.43  20468.30  47.82
977.8  42848.34  20516.23  47.88
978.8  42868.95  20611.60  48.08
979.7  43050.58  20681.88  48.04
980.7  43264.32  20863.37  48.22
981.7  43347.07  21072.10  48.61
982.6  43545.07  21124.40  48.51
983.6  44003.55  21349.67  48.52
984.6  44377.46  21715.78  48.93
985.5  44900.28  22278.24  49.62
986.5  45688.01  22633.22  49.54
987.5  46285.78  23158.17  50.03
988.4  47161.40  23900.80  50.68
989.4  47812.76  24842.66  51.96
990.4  48753.98  25739.38  52.79
991.3  50274.64  26585.91  52.88
992.3  50864.45  27453.76  53.97
993.2  51610.85  29096.55  56.38
994.2  53891.66  29433.79  54.62
995.2  55394.96  30588.46  55.22
996.1  55625.12  31072.64  55.86
997.1  56348.70  31377.21  55.68
998.0  54473.40  32204.40  59.12
999.0  55283.87  32279.04  58.39
1000.0  55127.21  31876.28  57.82
1000.9  55875.58  32528.51  58.22
1001.9  56355.47  32705.09  58.03
1002.8  54776.67  32615.11  59.54
1003.8  57170.04  33894.71  59.29
1004.8  54763.20  32857.92  60.00
961.5  49984.08  19110.61  38.23
965.5  48959.90  19248.46  39.31
969.5  47367.08  19054.24  40.23
973.4  45664.01  18722.40  41.00
977.4  44063.24  18615.64  42.25
981.4  43484.76  18754.76  43.13
985.3  43466.28  18973.06  43.65
989.3  43739.41  19323.74  44.18
993.3  44088.36  19683.71  44.65
997.2  44246.85  19967.09  45.13
1001.2  44240.69  20277.27  45.83
1005.2  44147.66  20623.37  46.71
1009.1  44170.72  21044.48  47.64
1013.1  44298.35  21536.26  48.62
1017.1  44409.64  22052.59  49.66
1021.0  44418.65  22542.01  50.75
1025.0  44431.92  23033.48  51.84
1029.0  44310.95  23446.95  52.91
1032.9  44196.36  23865.96  54.00
1036.9  44214.81  24341.01  55.05
1040.9  44317.48  24861.61  56.10
1044.8  44471.57  25399.48  57.11
1048.8  44586.22  25882.97  58.05
1052.7  44660.98  26288.56  58.86
1056.7  44664.90  26589.98  59.53
1060.7  44652.74  26821.63  60.07
1064.6  44643.90  26980.15  60.43
1068.6  44545.19  27001.08  60.62
1072.5  44448.63  26944.12  60.62
1076.5  44390.31  26851.50  60.49
1080.4  44363.13  26704.40  60.20
1084.4  44428.99  26532.91  59.72
1088.3  44526.89  26303.57  59.07
1092.3  44515.11  25951.47  58.30
1096.2  44485.25  25551.31  57.44
1100.2  44489.30  25161.23  56.56
1104.1  44387.15  24682.73  55.61
1108.1  44344.78  24226.40  54.63
1112.0  44255.25  23740.31  53.64
1116.0  44078.91  23156.92  52.54
1119.9  43920.46  22496.89  51.22
1123.9  43980.05  21791.67  49.55
1127.8  43933.44  20791.04  47.32
1131.8  43891.20  19513.55  44.46
1135.7  43904.71  18061.06  41.14
1139.6  43873.24  16528.76  37.67
1143.6  43814.30  15100.89  34.47
1147.5  43764.96  13925.10  31.82
1151.4  43600.54  12994.68  29.80
1155.4  43567.43  12378.61  28.41
1159.3  43548.37  11976.98  27.50
1163.2  43379.84  11658.08  26.87
1167.2  43333.14  11455.44  26.44
1171.1  43320.14  11308.02  26.10
1175.0  43247.45  11162.95  25.81
1179.0  43203.54  11028.52  25.53
1182.9  43281.26  10926.51  25.25
1186.8  43262.79  10806.99  24.98
1190.7  43059.97  10654.18  24.74
1194.7  42822.73  10530.67  24.59
1198.6  42602.18  10445.82  24.52
1202.5  42456.57  10385.03  24.46
1206.4  42335.53  10348.38  24.44
1210.3  42230.32  10342.91  24.49
1214.2  42126.94  10350.99  24.57
1218.2  41984.08  10359.31  24.67
1222.1  41854.50  10385.03  24.81
1226.0  41760.57  10427.51  24.97
1229.9  41673.90  10481.28  25.15
1233.8  41576.55  10520.16  25.30
1237.7  41528.30  10565.44  25.44
1241.6  41457.25  10605.44  25.58
1245.5  41309.15  10625.86  25.72
1249.4  41175.26  10643.24  25.85
1253.3  41058.30  10660.69  25.96
1257.2  40978.33  10676.23  26.05
1261.1  40873.57  10666.73  26.10
1265.0  40757.89  10630.06  26.08
1268.9  40587.74  10547.40  25.99
1272.8  40626.75  10504.15  25.86
1276.7  40780.33  10455.26  25.64
1280.6  40842.56  10346.48  25.33
1284.5  40748.73  10171.75  24.96
1288.4  40697.88  9976.25  24.51
1292.3  40562.50  9730.42  23.99
1296.2  40411.46  9451.96  23.39
1300.1  40239.63  9140.90  22.72
1303.9  40009.73  8790.62  21.97
1307.8  39785.54  8419.96  21.16
1311.7  39554.21  8026.05  20.29
1315.6  39326.35  7616.69  19.37
1319.5  39086.11  7198.11  18.42
1323.3  38870.69  6781.15  17.45
1327.2  38681.53  6377.39  16.49
1331.1  38474.56  5985.32  15.56
1335.0  38203.08  5608.69  14.68
1338.8  38009.09  5278.23  13.89
1342.7  37876.27  4982.09  13.15
1346.5  37598.34  4687.13  12.47
1350.4  37400.07  4437.46  11.86
1354.3  37094.65  4199.19  11.32
1358.1  36731.71  3964.23  10.79
1362.0  36487.36  3748.96  10.27
1365.8  36370.47  3553.52  9.77
1369.7  36432.94  3350.62  9.20
1373.5  36366.82  3089.30  8.49
1377.4  36166.21  2773.50  7.67
1381.2  35990.96  2426.46  6.74
1385.1  35936.27  2080.50  5.79
1389.0  35813.45  1759.66  4.91
1392.8  35598.92  1483.61  4.17
1396.6  35460.61  1254.84  3.54
1400.5  35253.63  1075.97  3.05
1404.3  35072.57  946.42  2.70
1408.2  35016.72  852.84  2.44
1412.0  34945.02  781.98  2.24
1415.8  34962.39  734.40  2.10
1419.6  34891.95  697.48  2.00
1423.5  34842.23  668.82  1.92
1427.3  34796.45  654.64  1.88
1431.1  34758.75  641.70  1.85
1434.9  34669.05  632.32  1.82
1438.8  34606.94  622.74  1.80
1442.6  34573.84  616.24  1.78
1446.4  34441.31  604.68  1.76
1450.2  34332.12  592.12  1.72
1454.0  34220.52  582.16  1.70
1457.8  34188.19  575.83  1.68
1461.6  34155.00  571.53  1.67
1465.4  34045.70  575.32  1.69
1469.2  33870.20  586.95  1.73
1473.0  33726.92  596.57  1.77
1476.8  33664.28  617.34  1.83
1480.7  33601.58  648.00  1.93
1484.4  33488.64  684.00  2.04
1488.2  33386.04  741.00  2.22
1492.0  33257.25  801.96  2.41
1495.8  33142.20  853.13  2.57
1499.6  33034.11  878.17  2.66
1503.4  32933.47  872.49  2.65
1507.2  32852.74  853.43  2.60
1510.9  32722.34  830.98  2.54
1514.7  32573.11  818.93  2.51
1518.5  32453.90  817.53  2.52
1522.3  32317.90  822.83  2.55
1526.0  32200.64  833.35  2.59
1529.8  32127.61  850.73  2.65
1533.6  32011.66  873.15  2.73
1537.3  31894.88  901.18  2.83
1541.1  31782.08  926.76  2.92
1544.8  31651.20  951.20  3.01
1548.6  31528.46  980.83  3.11
1552.4  31450.00  1011.92  3.22
1556.1  31366.15  1038.71  3.31
1559.9  31270.43  1068.52  3.42
1563.6  31150.17  1105.31  3.55
1567.3  31046.10  1146.40  3.69
1571.1  30855.35  1193.20  3.87
1574.8  30723.08  1243.63  4.05
1578.6  30633.26  1282.35  4.19
1582.3  30519.48  1299.62  4.26
1586.0  30400.45  1309.81  4.31
1589.8  30269.89  1317.68  4.35
1593.5  30123.48  1321.10  4.39
1597.2  29998.09  1326.95  4.42
1600.9  29883.71  1341.68  4.49
1604.7  29753.95  1358.50  4.57
1608.4  29639.51  1374.63  4.64
1612.1  29489.62  1383.33  4.69
1615.8  29365.23  1397.08  4.76
1619.5  29298.37  1415.47  4.83
1623.2  29161.12  1430.70  4.91
1626.9  29003.45  1442.70  4.97
1630.6  28846.40  1449.58  5.03
1634.3  28721.00  1460.47  5.09
1638.0  28599.28  1469.91  5.14
1641.7  28456.49  1479.63  5.20
1645.4  28299.47  1484.28  5.24
1649.1  28138.66  1481.78  5.27
1652.8  28008.70  1484.74  5.30
1656.4  27859.80  1486.64  5.34
1660.1  27720.43  1484.91  5.36
1663.8  27551.22  1480.67  5.37
1667.5  27406.07  1477.65  5.39
1671.1  27282.14  1472.46  5.40
1674.8  27100.13  1460.46  5.39
1678.5  27060.12  1457.51  5.39
1682.1  27085.37  1456.10  5.38
1685.8  27087.74  1454.15  5.37
1689.5  26985.46  1447.73  5.36
1693.1  26859.21  1440.17  5.36
1696.8  26718.75  1427.38  5.34
1700.4  26575.97  1412.53  5.32
1704.0  26457.91  1397.73  5.28
1707.7  26210.69  1369.12  5.22
1711.3  25940.59  1329.00  5.12
1715.0  25755.85  1298.31  5.04
1718.6  25603.66  1270.68  4.96
1722.2  25471.82  1237.71  4.86
1725.9  25346.15  1207.30  4.76
1729.5  25225.17  1181.97  4.69
1733.1  25122.33  1157.12  4.61
1736.7  25028.77  1129.93  4.51
1740.3  24869.68  1100.90  4.43
1744.0  24796.20  1077.40  4.35
1747.5  24670.34  1050.45  4.26
1751.2  24460.97  1017.72  4.16
1754.8  24300.77  990.57  4.08
1758.4  24168.99  968.70  4.01
1762.0  24004.67  952.41  3.97
1765.5  23878.06  938.88  3.93
1769.1  23824.80  924.80  3.88
1772.7  23745.17  906.26  3.82
1776.3  23631.64  887.51  3.76
1779.9  23517.13  867.19  3.69
1783.5  23453.36  847.33  3.61
1787.0  23338.16  833.00  3.57
1790.6  23194.11  823.61  3.55
1794.2  23099.94  814.26  3.52
1797.8  23019.59  808.29  3.51
1801.3  22943.45  800.43  3.49
1804.9  22821.75  793.63  3.48
1808.4  22758.56  792.69  3.48
1812.0  22651.25  787.35  3.48
1815.5  22537.46  781.18  3.47
1819.1  22377.91  768.29  3.43
1822.6  22230.86  761.90  3.43
1826.2  22108.08  761.40  3.44
1829.7  21962.63  753.50  3.43
1833.2  21769.52  742.94  3.41
1836.8  21568.82  726.18  3.37
1840.3  21408.35  716.13  3.35
1843.8  21283.15  711.15  3.34
1847.3  21175.36  703.04  3.32
1850.8  21026.88  693.50  3.30
1854.3  20829.70  677.06  3.25
1857.8  20716.80  658.67  3.18
1861.3  20743.52  623.91  3.01
1864.8  20771.48  589.07  2.84
1868.3  20668.83  553.33  2.68
1871.8  20505.60  478.72  2.33
1875.3  20412.67  428.00  2.10
1878.8  20386.82  399.59  1.96
1882.3  20318.80  357.71  1.76
1885.8  20165.84  326.59  1.62
1889.3  19976.70  308.62  1.54
1892.7  19815.25  292.18  1.47
1896.2  19650.94  286.20  1.46
1899.7  19441.16  313.10  1.61
1903.1  19313.45  349.27  1.81
1906.6  19304.54  395.83  2.05
1910.0  19451.18  458.66  2.36
1913.5  19794.95  556.82  2.81
1917.0  20308.75  800.04  3.94
1920.4  20662.58  1078.59  5.22
1923.8  20806.27  1137.84  5.47
1871.2  18887.00  194.59  1.03
1873.9  18953.16  236.24  1.25
1876.7  18991.47  216.34  1.14
1879.5  19143.67  141.87  0.74
1882.3  18900.39  156.38  0.83
1885.1  18757.12  166.65  0.89
1887.8  18909.61  112.70  0.60
1890.6  18719.80  135.14  0.72
1893.4  18700.00  112.45  0.60
1896.2  18690.78  73.35  0.39
1898.9  18634.09  87.79  0.47
1901.7  18493.24  84.26  0.46
1904.5  18663.12  82.88  0.44
1907.2  18605.75  98.17  0.53
1910.0  18464.96  92.23  0.50
1912.7  18451.36  62.72  0.34
1915.5  18338.72  75.27  0.41
1918.2  18231.61  87.07  0.48
1921.0  18078.76  73.35  0.41
1923.7  18082.37  74.49  0.41
1926.5  18028.91  83.59  0.46
1929.2  17989.40  81.24  0.45
1932.0  17961.44  85.32  0.48
1934.7  17922.05  80.25  0.45
1937.4  17800.47  76.51  0.43
1940.2  17730.06  85.03  0.48
1942.9  17801.07  81.20  0.46
1945.6  17808.94  81.54  0.46
1948.3  17731.12  93.26  0.53
1951.1  17698.80  84.28  0.48
1953.8  17700.00  74.00  0.42
1956.5  17568.67  93.85  0.53
1959.2  17632.03  92.69  0.53
1961.9  17647.56  78.47  0.44
1964.6  17543.58  89.25  0.51
1967.3  17598.27  89.00  0.51
1970.0  17419.60  78.93  0.45
1972.8  17335.24  97.08  0.56
1975.5  17419.52  94.63  0.54
1978.2  17336.04  91.49  0.53
1980.9  17221.82  106.89  0.62
1983.5  17185.34  96.95  0.56
1986.2  17183.55  93.12  0.54
1988.9  17157.36  110.58  0.64
1991.6  17017.92  105.25  0.62
1994.3  16893.86  93.39  0.55
1997.0  16913.63  111.49  0.66
1999.7  16876.79  115.83  0.69
2002.3  16857.27  106.43  0.63
2005.0  16785.35  116.98  0.70
2007.7  16706.93  107.98  0.65
2010.4  16656.07  103.73  0.62
2013.0  16600.58  123.28  0.74
2015.7  16495.88  127.88  0.78
2018.4  16401.61  126.70  0.77
2021.0  16371.00  127.50  0.78
2023.7  16264.64  129.08  0.79
2026.4  16195.83  121.12  0.75
2029.0  16138.97  115.28  0.71
2031.7  16029.65  116.42  0.73
2034.3  16012.75  124.87  0.78
2037.0  15932.90  145.44  0.91
2039.6  15864.39  132.23  0.83
2042.3  15822.15  119.82  0.76
2044.9  15747.27  140.25  0.89
2047.5  15719.22  135.58  0.86
2050.2  15638.00  133.47  0.85
2052.8  15596.00  149.33  0.96
2055.4  15487.61  143.82  0.93
2058.1  15363.60  130.67  0.85
2060.7  15311.01  147.20  0.96
2063.3  15243.07  155.13  1.02
2065.9  15200.63  136.79  0.90
2068.6  15142.00  150.75  1.00
2071.2  15102.27  150.66  1.00
2073.8  15013.06  152.98  1.02
2076.4  14939.89  155.30  1.04
2079.0  14937.96  147.06  0.98
2081.6  14955.68  153.80  1.03
2084.2  14929.44  160.83  1.08
2086.8  14795.01  164.04  1.11
2089.4  14708.12  154.12  1.05
2092.1  14645.50  160.56  1.10
2094.7  14574.18  163.85  1.12
2097.2  14543.50  165.28  1.14
2099.8  14569.24  171.75  1.18
2102.4  14455.51  172.50  1.19
2105.0  14315.55  170.05  1.19
2107.6  14281.54  178.50  1.25
2110.2  14245.28  178.08  1.25
2112.8  14225.04  166.07  1.17
2115.3  14222.61  181.86  1.28
2117.9  14223.97  188.61  1.33
2120.5  14225.20  171.02  1.20
2123.1  14136.53  177.45  1.26
2125.6  14079.43  183.51  1.30
2128.2  14012.88  174.63  1.25
2130.8  13940.55  188.18  1.35
2133.3  13889.33  193.60  1.39
2135.9  13802.30  187.28  1.36
2138.4  13704.95  200.37  1.46
2141.0  13601.55  195.89  1.44
2143.6  13585.34  188.61  1.39
2146.1  13439.94  190.99  1.42
2148.7  13282.54  194.80  1.47
2151.2  13302.67  193.60  1.46
2153.8  13324.47  195.24  1.47
2156.3  13227.98  195.90  1.48
2158.8  13160.05  188.03  1.43
2161.4  13128.93  199.51  1.52
2163.9  13034.58  205.40  1.58
2166.4  12973.85  189.23  1.46
2169.0  12959.07  206.96  1.60
2171.5  12876.28  210.91  1.64
2174.0  12786.55  194.37  1.52
2176.5  12767.30  194.35  1.52
2179.1  12718.27  192.75  1.52
2181.6  12644.21  200.75  1.59
2184.1  12612.60  206.36  1.64
2186.6  12631.79  207.13  1.64
2189.1  12551.10  186.18  1.48
2191.6  12501.53  191.64  1.53
2194.1  12512.72  204.84  1.64
2196.6  12513.32  191.35  1.53
2199.2  12564.98  215.11  1.71
2201.7  12503.60  201.77  1.61
2204.1  12450.01  205.24  1.65
2206.6  12458.20  225.04  1.81
2209.1  12429.94  209.44  1.68
2211.6  12413.54  203.02  1.64
2214.1  12385.83  216.70  1.75
2216.6  12340.79  213.97  1.73
2219.1  12355.98  194.98  1.58
2221.6  12303.15  205.56  1.67
2224.0  12230.10  199.39  1.63
2226.5  12198.83  186.45  1.53
2229.0  12234.63  189.06  1.55
2231.5  12152.59  199.16  1.64
2233.9  12137.64  211.66  1.74
2236.4  12131.98  194.29  1.60
2238.9  12024.13  176.96  1.47
2241.3  12068.10  196.92  1.63
2243.8  12017.57  204.70  1.70
2246.2  11870.35  191.25  1.61
2248.7  11882.39  187.69  1.58
2251.2  11860.53  187.04  1.58
2253.6  11784.96  181.76  1.54
2256.1  11773.44  183.04  1.55
2258.5  11793.92  194.65  1.65
2260.9  11696.75  185.36  1.58
2263.4  11668.53  172.72  1.48
2265.8  11678.48  173.10  1.48
2268.3  11583.48  170.61  1.47
2270.7  11653.18  168.89  1.45
2273.1  11608.55  166.19  1.43
2275.6  11523.84  154.88  1.34
2278.0  11553.06  156.30  1.35
2280.4  11529.61  168.04  1.46
2282.8  11402.06  175.52  1.54
2285.3  11435.59  147.75  1.29
2287.7  11531.47  162.71  1.41
2290.1  11440.95  183.17  1.60
2292.5  11408.96  161.38  1.41
2294.9  11404.51  158.07  1.39
2297.3  11303.39  146.34  1.29
2299.7  11233.01  143.45  1.28
2302.1  11231.11  141.42  1.26
2304.5  11113.20  137.20  1.23
2306.9  10995.60  130.67  1.19
2309.3  10932.15  139.75  1.28
2311.7  10856.55  129.53  1.19
2314.1  10708.33  120.78  1.13
2316.5  10641.94  141.84  1.33
2318.9  10674.03  136.65  1.28
2321.3  10672.73  122.81  1.15
2323.7  10642.23  129.12  1.21
2326.1  10606.96  131.65  1.24
2328.4  10691.58  120.69  1.13
2330.8  10736.25  129.52  1.21
2333.2  10617.06  108.45  1.02
2335.6  10582.60  92.72  0.88
2337.9  10642.00  126.59  1.19
2340.3  10592.40  114.75  1.08
2342.7  10507.23  98.74  0.94
2345.0  10502.01  114.66  1.09
2347.4  10493.25  113.33  1.08
2349.7  10277.63  89.71  0.87
2352.1  10236.25  95.77  0.94
2354.4  10290.21  114.62  1.11
2356.8  10243.45  89.21  0.87
2359.2  10187.67  114.11  1.12
2361.5  10122.93  117.81  1.16
2363.8  10144.75  89.30  0.88
2366.2  10159.49  108.86  1.07
2368.5  10097.05  109.77  1.09
2370.9  10118.68  101.40  1.00
2373.2  10072.53  103.42  1.03
2375.5  9932.38  96.53  0.97
2377.9  9918.93  85.09  0.86
2380.2  9923.89  97.74  0.98
2382.5  9856.28  90.37  0.92
2384.8  9822.88  88.16  0.90
2387.2  9807.99  90.64  0.92
2389.5  9759.69  67.68  0.69
2391.8  9772.85  64.96  0.66
2394.1  9716.63  71.98  0.74
2396.4  9652.48  80.64  0.84
2398.7  9714.10  81.20  0.84
2401.0  9598.25  93.96  0.98
2403.3  9511.80  79.68  0.84
2405.6  9521.83  49.98  0.52
2407.9  9458.88  68.47  0.72
2410.2  9400.00  83.55  0.89
2412.5  9350.27  77.92  0.83
2414.8  9330.30  89.01  0.95
2417.1  9280.68  84.31  0.91
2419.4  9294.64  79.89  0.86
2421.7  9214.94  84.11  0.91
2424.0  9156.02  77.49  0.85
2426.2  9223.40  69.55  0.75
2428.5  9129.27  66.70  0.73
2430.8  9112.40  59.95  0.66
2433.1  9071.93  55.32  0.61
2435.4  8991.17  74.60  0.83
2437.6  8963.19  76.47  0.85
2439.9  8866.09  67.38  0.76
2442.2  8873.80  81.53  0.92
2444.4  8827.50  67.00  0.76
2446.7  8812.56  54.51  0.62
2448.9  8870.66  61.19  0.69
2451.2  8802.92  49.67  0.56
2453.4  8732.64  32.14  0.37
2455.7  8702.87  54.74  0.63
2457.9  8608.05  59.02  0.69
2460.2  8594.01  41.10  0.48
2462.4  8611.20  74.88  0.87
2464.7  8503.63  65.19  0.77
2466.9  8416.62  42.80  0.51
2469.2  8471.54  60.50  0.71
2471.4  8370.38  50.33  0.60
2473.6  8261.63  37.94  0.46
2475.9  8256.69  67.73  0.82
2478.1  8211.66  61.48  0.75
2480.3  8173.00  9.28  0.11
2482.5  8177.69  47.66  0.58
2484.8  8119.06  70.39  0.87
2487.0  8110.30  39.50  0.49
2489.2  8058.48  70.36  0.87
2491.4  7946.29  79.41  1.00
2493.6  7987.26  36.58  0.46
2495.8  7981.68  42.23  0.53
2498.0  7985.07  56.75  0.71
2500.2  7961.63  30.89  0.39
2502.4  8125.20  41.44  0.51
2504.6  8272.59  50.08  0.61
2506.8  8348.61  22.73  0.27
