/*** Spectra Vista SIG Data ***/
name= GS2.sig
comm= SIG file reprocesed for matching/overlap;Averaged Ref/Tar of files: GD5S4,GD5S5,GD5S6
data=
346.4  366.28  175.81  48.00
347.9  400.03  178.21  44.55
349.5  432.12  187.62  43.42
351.1  468.00  193.03  41.25
352.6  496.51  201.14  40.51
354.2  520.33  209.88  40.34
355.7  575.84  221.81  38.52
357.3  598.14  225.16  37.64
358.8  616.87  233.46  37.85
360.4  668.33  237.79  35.58
361.9  686.05  242.38  35.33
363.5  715.01  246.53  34.48
365.1  743.78  250.12  33.63
366.6  778.54  256.87  32.99
368.2  824.27  258.75  31.39
369.7  873.39  264.68  30.30
371.3  928.49  273.94  29.50
372.8  977.74  285.08  29.16
374.4  1016.27  295.48  29.07
375.9  1052.58  293.93  27.92
377.4  1084.71  301.40  27.79
379.0  1129.79  298.31  26.40
380.5  1157.14  299.55  25.89
382.1  1186.43  303.78  25.60
383.6  1234.64  302.40  24.49
385.2  1293.88  311.30  24.06
386.7  1345.63  321.65  23.90
388.3  1410.38  327.55  23.22
389.8  1464.46  342.94  23.42
391.3  1527.57  355.37  23.26
392.9  1567.60  369.85  23.59
394.4  1609.87  383.80  23.84
395.9  1662.63  403.17  24.25
397.5  1749.05  419.47  23.98
399.0  1827.74  427.66  23.40
400.6  1876.29  430.91  22.97
402.1  1904.04  435.85  22.89
403.6  1943.17  441.14  22.70
405.1  1994.81  446.95  22.41
406.7  2061.92  459.35  22.28
408.2  2135.06  482.33  22.59
409.7  2198.56  498.77  22.69
411.3  2272.05  522.34  22.99
412.8  2335.64  540.36  23.14
414.3  2399.77  566.84  23.62
415.8  2475.00  589.00  23.80
417.4  2547.71  610.57  23.97
418.9  2612.23  627.78  24.03
420.4  2658.25  648.71  24.40
421.9  2705.56  656.30  24.26
423.5  2743.63  676.21  24.65
425.0  2788.02  686.24  24.61
426.5  2844.45  700.04  24.61
428.0  2917.63  718.10  24.61
429.5  3009.90  742.07  24.65
431.1  3112.45  769.36  24.72
432.6  3227.88  794.38  24.61
434.1  3329.29  824.93  24.78
435.6  3423.98  855.27  24.98
437.1  3517.80  881.14  25.05
438.6  3607.74  903.12  25.03
440.1  3694.39  931.78  25.22
441.6  3790.73  955.06  25.19
443.1  3873.83  987.93  25.50
444.7  3959.99  1019.83  25.75
446.2  4024.76  1048.85  26.06
447.7  4101.41  1075.59  26.22
449.2  4174.20  1104.48  26.46
450.7  4238.00  1129.58  26.65
452.2  4313.18  1160.40  26.90
453.7  4393.64  1191.01  27.11
455.2  4491.99  1231.13  27.41
456.7  4618.24  1278.70  27.69
458.2  4761.06  1329.97  27.93
459.7  4899.13  1383.67  28.24
461.2  5044.37  1438.59  28.52
462.7  5165.05  1487.85  28.81
464.2  5287.79  1539.39  29.11
465.7  5408.14  1585.11  29.31
467.2  5518.98  1625.98  29.46
468.7  5631.00  1673.33  29.72
470.2  5705.20  1705.07  29.89
471.7  5821.13  1737.55  29.85
473.2  6011.22  1779.59  29.60
474.6  6153.75  1828.40  29.71
476.1  6204.18  1863.34  30.03
477.6  6220.94  1869.81  30.06
479.1  6250.52  1881.69  30.10
480.6  6293.37  1899.78  30.19
482.1  6374.96  1929.59  30.27
483.6  6474.12  1975.13  30.51
485.1  6599.29  2031.57  30.78
486.6  6739.10  2097.60  31.13
488.0  6898.13  2180.10  31.60
489.5  7058.36  2266.17  32.11
491.0  7224.81  2363.50  32.71
492.5  7392.87  2468.67  33.39
494.0  7557.79  2582.21  34.17
495.4  7702.20  2696.98  35.02
496.9  7844.83  2816.06  35.90
498.4  7990.29  2939.54  36.79
499.9  8131.50  3073.18  37.79
501.4  8263.45  3207.78  38.82
502.8  8392.79  3345.53  39.86
504.3  8499.60  3484.56  41.00
505.8  8611.18  3630.88  42.16
507.2  8674.01  3760.03  43.35
508.7  8728.20  3886.16  44.52
510.2  8764.92  4009.47  45.74
511.6  8789.76  4130.16  46.99
513.1  8840.43  4264.60  48.24
514.6  8904.34  4408.65  49.51
516.0  8958.85  4548.94  50.78
517.5  9056.55  4712.29  52.03
519.0  9171.31  4880.37  53.21
520.5  9287.32  5054.92  54.43
521.9  9437.16  5247.08  55.60
523.4  9612.27  5453.62  56.74
524.8  9785.79  5657.82  57.82
526.3  9984.58  5874.60  58.84
527.8  10184.06  6088.60  59.79
529.2  10366.76  6292.19  60.70
530.7  10567.61  6506.34  61.57
532.1  10746.40  6702.76  62.37
533.6  10959.02  6917.18  63.12
535.0  11168.56  7133.51  63.87
536.5  11376.00  7342.02  64.54
538.0  11592.92  7558.48  65.20
539.4  11785.91  7762.30  65.86
540.9  12037.93  7989.47  66.37
542.3  12246.63  8203.49  66.99
543.8  12400.56  8377.74  67.56
545.2  12445.48  8487.55  68.20
546.6  12442.01  8553.47  68.75
548.1  12455.19  8627.05  69.26
549.5  12460.55  8690.65  69.75
551.0  12456.77  8745.57  70.21
552.4  12484.13  8814.10  70.60
553.9  12491.52  8870.76  71.01
555.3  12509.64  8935.52  71.43
556.8  12569.08  9024.98  71.80
558.2  12630.94  9113.85  72.15
559.6  12713.51  9214.56  72.48
561.1  12831.00  9340.93  72.80
562.5  12959.42  9477.61  73.13
564.0  13129.35  9642.93  73.45
565.4  13288.41  9798.35  73.74
566.8  13487.87  9982.69  74.01
568.3  13678.39  10156.04  74.25
569.7  13879.32  10332.88  74.45
571.1  14074.77  10498.77  74.59
572.6  14269.77  10661.11  74.71
574.0  14463.08  10816.52  74.79
575.4  14650.03  10965.83  74.85
576.9  14818.07  11110.87  74.98
578.3  14977.46  11243.62  75.07
579.7  15131.24  11369.91  75.14
581.1  15254.19  11478.54  75.25
582.6  15387.18  11591.08  75.33
584.0  15508.86  11696.18  75.42
585.4  15681.05  11826.07  75.42
586.8  15909.04  12000.00  75.43
588.3  16162.38  12188.28  75.41
589.7  16371.81  12352.39  75.45
591.1  16519.39  12468.50  75.48
592.5  16589.78  12532.44  75.54
594.0  16627.80  12564.02  75.56
595.4  16637.76  12579.76  75.61
596.8  16651.64  12598.87  75.66
598.2  16659.51  12603.17  75.65
599.6  16659.36  12601.05  75.64
601.0  16705.59  12631.32  75.61
602.4  16752.94  12657.38  75.55
603.9  16822.23  12708.42  75.55
605.3  16905.11  12754.83  75.45
606.7  16973.10  12790.08  75.36
608.1  17114.04  12865.22  75.17
609.5  17255.15  12947.42  75.04
610.9  17434.91  13051.94  74.86
612.3  17598.49  13146.32  74.70
613.7  17818.60  13264.98  74.44
615.1  17967.42  13323.09  74.15
616.5  18122.06  13388.05  73.88
617.9  18356.64  13529.37  73.70
619.3  18578.68  13670.32  73.58
620.7  18848.67  13850.89  73.48
622.1  19119.58  14038.82  73.43
623.5  19414.06  14269.68  73.50
624.9  19741.18  14535.85  73.63
626.3  19952.52  14709.65  73.72
627.7  19741.37  14583.44  73.87
629.1  19544.02  14450.45  73.94
630.5  19457.12  14393.62  73.98
631.9  19461.81  14363.53  73.80
633.3  19457.49  14250.63  73.24
634.7  19533.17  14192.49  72.66
636.1  19566.68  14004.98  71.58
637.5  19597.55  13959.30  71.23
638.9  19677.50  14022.55  71.26
640.2  19731.43  14092.36  71.42
641.6  19754.28  14127.67  71.52
643.0  19715.36  14110.61  71.57
644.4  19707.26  14087.71  71.48
645.8  19650.11  14019.17  71.34
647.2  19716.78  14053.64  71.28
648.5  19765.84  14066.99  71.17
649.9  19671.60  14007.40  71.21
651.3  19608.23  13969.92  71.25
652.7  19503.68  13890.36  71.22
654.1  19390.95  13578.54  70.03
655.5  19238.75  13188.11  68.55
656.8  19118.09  12820.33  67.06
658.2  19225.93  12623.62  65.66
659.6  19449.31  12530.11  64.42
660.9  19643.18  12408.25  63.17
662.3  19825.21  12267.20  61.88
663.7  20008.80  12129.60  60.62
665.0  20165.89  11976.87  59.39
666.4  20328.89  11844.29  58.26
667.8  20535.62  11764.46  57.29
669.1  20711.76  11685.40  56.42
670.5  20914.18  11650.69  55.71
671.9  21055.86  11613.58  55.16
673.2  21237.33  11633.32  54.78
674.6  21400.77  11673.22  54.55
676.0  21596.49  11766.55  54.48
677.3  21793.24  11893.17  54.57
678.7  21992.69  12080.77  54.93
680.0  22269.19  12355.51  55.48
681.4  22542.00  12713.08  56.40
682.8  22829.63  13173.46  57.70
684.1  23112.18  13745.16  59.47
685.5  23364.31  14418.21  61.71
686.8  23617.23  15162.13  64.20
688.2  23841.32  15966.62  66.97
689.5  23927.84  16739.80  69.96
690.9  23997.39  17532.74  73.06
692.2  24047.78  18323.62  76.20
693.6  24110.83  19117.49  79.29
694.9  24095.99  19836.85  82.32
696.2  24121.97  20546.48  85.18
697.6  24149.95  21216.29  87.85
698.9  24174.48  21838.78  90.34
700.3  24215.57  22424.09  92.60
701.6  24264.40  22974.85  94.69
703.0  24323.35  23474.73  96.51
704.3  24329.34  23882.00  98.16
705.6  24327.41  24236.17  99.62
707.0  24334.75  24570.85  100.97
708.3  24282.08  24828.12  102.25
709.6  24223.21  25055.83  103.44
711.0  24124.28  25220.07  104.54
712.3  24015.02  25363.99  105.62
713.6  23977.17  25522.73  106.45
714.9  23907.38  25634.32  107.22
716.3  23880.58  25782.52  107.96
717.6  23876.83  25943.79  108.66
718.9  23805.06  25989.12  109.17
720.2  23675.16  25970.28  109.69
721.6  23576.15  25979.11  110.19
722.9  23446.45  25955.54  110.70
724.2  23274.82  25885.20  111.22
725.5  23133.68  25864.76  111.81
726.8  23009.81  25812.76  112.18
728.1  22933.91  25804.51  112.52
729.5  22856.87  25778.28  112.78
730.8  22796.53  25771.92  113.05
732.1  22719.29  25759.45  113.38
733.4  22660.56  25759.44  113.68
734.7  22602.67  25738.67  113.87
736.0  22569.89  25760.96  114.14
737.3  22520.76  25749.22  114.34
738.6  22554.56  25850.20  114.61
739.9  22633.16  26015.29  114.94
741.2  22698.59  26157.04  115.24
742.5  22841.25  26389.50  115.53
743.8  23091.34  26744.41  115.82
745.1  23491.07  27262.95  116.06
746.4  23957.57  27856.86  116.28
747.7  24466.55  28456.91  116.31
749.0  24948.63  29007.83  116.27
750.3  25229.30  29284.41  116.07
751.6  25175.69  29200.09  115.99
752.9  24925.64  28925.34  116.05
754.2  24630.59  28639.66  116.28
755.4  24314.44  28359.40  116.64
756.7  24210.69  28316.28  116.96
758.0  24235.24  28416.92  117.25
759.3  24394.18  28706.82  117.68
760.6  24621.52  29042.76  117.96
761.9  24823.09  29352.72  118.25
763.1  24955.30  29550.41  118.41
764.4  25125.21  29752.93  118.42
765.7  25257.38  29921.23  118.47
767.0  25349.99  30085.77  118.68
768.2  25431.84  30233.28  118.88
769.5  25509.93  30360.16  119.01
770.8  25646.87  30538.74  119.07
772.0  25674.66  30608.95  119.22
773.3  25762.96  30718.10  119.23
774.6  25839.71  30845.57  119.37
775.8  25921.43  30936.04  119.35
777.1  25948.26  30981.76  119.40
778.4  25918.05  30988.47  119.56
779.6  25945.86  31029.18  119.59
780.9  25904.00  31032.00  119.80
782.1  25811.51  30977.06  120.01
783.4  25819.04  31025.83  120.17
784.6  25849.06  31093.91  120.29
785.9  26028.56  31385.32  120.58
787.1  26416.14  31877.93  120.68
788.4  26716.91  32190.37  120.49
789.6  26732.54  32079.38  120.00
790.9  26499.75  31712.36  119.67
792.1  26215.36  31384.25  119.72
793.4  25939.41  31134.64  120.03
794.6  25766.06  30912.04  119.97
795.8  25608.38  30743.65  120.05
797.1  25427.85  30572.59  120.23
798.3  25301.10  30462.36  120.40
799.5  25235.55  30411.10  120.51
800.8  25155.70  30326.28  120.55
802.0  25074.70  30255.67  120.66
803.2  24986.56  30165.28  120.73
804.5  24925.76  30098.75  120.75
805.7  24855.66  30006.49  120.72
806.9  24776.64  29903.61  120.69
808.1  24708.89  29823.10  120.70
809.4  24677.19  29793.23  120.73
810.6  24617.78  29749.11  120.84
811.8  24606.91  29728.57  120.81
813.0  24601.75  29744.18  120.90
814.2  24620.30  29785.79  120.98
815.4  24684.78  29855.42  120.95
816.6  24715.54  29880.36  120.90
817.9  24752.29  29883.38  120.73
819.1  24717.85  29798.98  120.56
820.3  24615.89  29669.90  120.53
821.5  24558.22  29581.84  120.46
822.7  24525.20  29516.91  120.35
823.9  24512.51  29495.58  120.33
825.1  24512.73  29461.13  120.19
826.3  24527.23  29449.94  120.07
827.5  24554.23  29440.52  119.90
828.7  24585.24  29432.06  119.71
829.9  24620.63  29417.64  119.48
831.0  24677.45  29449.05  119.34
832.2  24735.00  29476.76  119.17
833.4  24800.15  29493.75  118.93
834.6  24827.34  29523.13  118.91
835.8  24886.58  29569.68  118.82
837.0  24941.18  29639.23  118.84
838.1  25036.55  29753.52  118.84
839.3  25073.20  29806.35  118.88
840.5  25138.07  29882.37  118.87
841.7  25214.76  29983.32  118.91
842.9  25311.78  30104.27  118.93
844.0  25352.29  30190.43  119.08
845.2  25454.19  30322.46  119.13
846.4  25527.43  30410.50  119.13
847.5  25656.16  30564.66  119.13
848.7  25745.00  30682.79  119.18
849.9  25879.71  30811.66  119.06
851.0  25913.04  30808.79  118.89
852.2  25966.07  30832.19  118.74
853.3  25941.98  30794.03  118.70
854.5  25934.86  30789.32  118.72
855.6  25916.94  30781.14  118.77
856.8  25944.85  30795.91  118.70
857.9  25943.54  30789.24  118.68
859.1  25996.60  30851.20  118.67
860.2  26027.46  30858.25  118.56
861.4  26023.97  30890.86  118.70
862.5  26059.24  30920.23  118.65
863.7  26115.12  30985.05  118.65
864.8  26101.25  31000.53  118.77
865.9  26082.46  30950.34  118.66
867.1  26099.25  30974.44  118.68
868.2  26099.69  30963.65  118.64
869.3  26128.19  30976.15  118.55
870.5  26099.47  30921.69  118.48
871.6  26087.08  30926.63  118.55
872.7  26136.21  30971.00  118.50
873.9  26148.82  30967.82  118.43
875.0  26142.73  30932.72  118.32
876.1  26142.29  30956.86  118.42
877.2  26184.05  30960.31  118.24
878.3  26169.01  30944.56  118.25
879.4  26191.11  30960.14  118.21
880.5  26214.48  30964.99  118.12
881.7  26220.35  30933.76  117.98
882.8  26271.44  30932.44  117.74
883.9  26272.50  30922.15  117.70
885.0  26275.91  30833.71  117.35
886.1  26278.81  30756.73  117.04
887.2  26194.66  30625.39  116.91
888.3  26154.69  30509.75  116.65
889.4  26083.75  30395.95  116.53
890.5  26060.47  30310.83  116.31
891.6  26043.45  30242.22  116.12
892.7  26025.13  30201.76  116.05
893.8  26046.70  30210.65  115.99
894.9  26070.72  30178.91  115.76
896.0  26059.51  30147.48  115.69
897.0  26054.12  30121.34  115.61
898.1  26079.30  30124.94  115.51
899.2  26095.96  30117.14  115.41
900.3  26052.56  30030.47  115.27
901.4  26029.33  29953.05  115.07
902.4  26018.83  29934.04  115.05
903.5  26017.27  29830.73  114.66
904.6  26012.16  29785.65  114.51
905.7  26050.43  29768.81  114.27
906.7  26024.14  29720.76  114.20
907.8  26076.86  29717.45  113.96
908.9  26057.48  29644.85  113.77
909.9  26017.06  29602.51  113.78
911.0  26009.49  29516.65  113.48
912.1  25979.15  29451.23  113.36
913.1  25944.88  29343.60  113.10
914.2  25856.17  29204.06  112.95
915.2  25844.13  29140.16  112.75
916.3  25883.78  29091.40  112.39
917.3  25847.25  29023.81  112.29
918.4  25819.06  28897.00  111.92
919.4  25792.96  28839.20  111.81
920.5  25804.34  28728.42  111.33
921.5  25824.68  28653.30  110.95
922.6  25820.42  28551.50  110.58
923.6  25802.74  28479.33  110.37
924.7  25837.63  28405.80  109.94
925.7  25830.51  28295.37  109.54
926.7  25889.20  28220.69  109.01
927.8  25949.67  28114.09  108.34
928.8  26061.51  28089.88  107.78
929.9  26114.55  28045.45  107.39
930.9  26214.58  28067.26  107.07
931.9  26363.30  28074.72  106.49
932.9  26568.63  28110.32  105.80
934.0  26604.58  28029.82  105.36
935.0  26610.78  27974.80  105.13
936.0  26639.41  27846.81  104.53
937.0  26632.91  27685.22  103.95
938.1  26589.57  27532.43  103.55
939.1  26594.73  27411.12  103.07
940.1  26647.30  27311.76  102.49
941.1  26757.94  27359.12  102.25
942.1  26950.86  27364.53  101.53
943.1  27064.46  27360.38  101.09
944.1  27200.04  27341.90  100.52
945.2  27250.86  27236.11  99.95
946.2  27341.46  27114.98  99.17
947.2  27385.31  27033.55  98.72
948.2  27528.14  26979.25  98.01
949.2  27562.84  26833.09  97.35
950.2  27601.23  26719.35  96.80
951.2  27696.06  26576.03  95.96
952.2  27776.58  26469.10  95.29
953.2  27874.44  26390.76  94.68
954.2  27994.28  26292.81  93.92
955.2  28013.52  26161.32  93.39
956.2  27975.49  26049.92  93.12
957.2  28074.45  25978.25  92.53
958.2  28163.05  25957.19  92.17
959.2  28188.45  25907.40  91.91
960.1  28244.69  25840.90  91.49
961.1  28322.00  25811.84  91.14
962.1  28304.06  25792.50  91.13
963.1  28357.97  25811.92  91.02
964.1  28464.51  25849.66  90.81
965.1  28543.56  25852.89  90.57
966.1  28584.14  25878.52  90.53
967.0  28655.80  25915.98  90.44
968.0  28697.14  25942.80  90.40
969.0  28718.80  26010.99  90.57
970.0  28760.47  26066.15  90.63
971.0  28834.42  26081.23  90.45
971.9  28848.78  26108.36  90.50
972.9  28890.31  26154.55  90.53
973.9  28948.56  26229.58  90.61
974.9  29046.70  26354.35  90.73
975.8  29063.68  26407.08  90.86
976.8  29052.58  26485.79  91.17
977.8  29165.54  26552.16  91.04
978.8  29197.88  26763.30  91.66
979.7  29189.32  26866.89  92.04
981.4  29653.05  23276.05  78.49
985.3  29580.67  23553.52  79.62
989.3  29694.74  23998.73  80.82
993.3  29811.28  24461.79  82.06
997.2  29873.76  24775.21  82.93
1001.2  29847.48  25006.11  83.78
1005.2  29766.32  25208.05  84.69
1009.1  29802.16  25504.19  85.58
1013.1  29912.80  25884.77  86.53
1017.1  29980.27  26276.57  87.65
1021.0  29997.45  26610.82  88.71
1025.0  29986.05  26912.10  89.75
1029.0  29874.56  27094.86  90.70
1032.9  29757.39  27273.61  91.65
1036.9  29719.10  27541.34  92.67
1040.9  29786.91  27873.69  93.58
1044.8  29914.06  28246.06  94.42
1048.8  30017.23  28586.20  95.23
1052.7  30081.05  28875.30  95.99
1056.7  30106.96  29068.46  96.55
1060.7  30124.55  29206.29  96.95
1064.6  30126.20  29314.26  97.30
1068.6  30068.46  29309.96  97.48
1072.5  30024.99  29260.75  97.45
1076.5  29992.38  29199.10  97.36
1080.4  29983.51  29131.28  97.16
1084.4  30049.89  29082.18  96.78
1088.3  30134.74  29000.25  96.24
1092.3  30115.74  28804.30  95.65
1096.2  30104.84  28584.68  94.95
1100.2  30142.18  28399.13  94.22
1104.1  30082.71  28113.50  93.45
1108.1  30052.27  27849.38  92.67
1112.0  29977.43  27557.07  91.93
1116.0  29868.35  27162.89  90.94
1119.9  29779.89  26732.95  89.77
1123.9  29822.35  26346.04  88.34
1127.8  29798.40  25742.08  86.39
1131.8  29786.58  24960.58  83.80
1135.7  29821.64  24062.86  80.69
1139.6  29831.38  23070.76  77.34
1143.6  29819.95  22118.16  74.17
1147.5  29803.64  21292.95  71.44
1151.4  29713.98  20593.58  69.31
1155.4  29731.43  20158.69  67.80
1159.3  29760.66  19897.40  66.86
1163.2  29674.15  19672.80  66.30
1167.2  29672.28  19566.76  65.94
1171.1  29681.80  19509.72  65.73
1175.0  29651.52  19432.54  65.54
1179.0  29638.87  19363.55  65.33
1182.9  29697.98  19341.35  65.13
1186.8  29706.14  19287.15  64.93
1190.7  29571.10  19152.46  64.77
1194.7  29411.94  19011.08  64.64
1198.6  29289.65  18907.35  64.55
1202.5  29196.66  18858.84  64.59
1206.4  29112.98  18835.65  64.70
1210.3  29056.59  18841.06  64.84
1214.2  29008.58  18866.42  65.04
1218.2  28915.95  18882.10  65.30
1222.1  28833.10  18916.40  65.61
1226.0  28785.60  18975.33  65.92
1229.9  28734.48  19025.94  66.21
1233.8  28673.70  19053.18  66.45
1237.7  28644.25  19104.40  66.70
1241.6  28596.57  19157.88  66.99
1245.5  28494.07  19169.25  67.27
1249.4  28422.55  19171.00  67.45
1253.3  28356.92  19183.70  67.65
1257.2  28323.43  19200.13  67.79
1261.1  28264.79  19178.53  67.85
1265.0  28184.91  19120.20  67.84
1268.9  28067.43  19029.12  67.80
1272.8  28106.70  19041.80  67.75
1276.7  28238.01  19084.33  67.58
1280.6  28297.17  19044.01  67.30
1284.5  28250.81  18901.22  66.91
1288.4  28234.52  18759.03  66.44
1292.3  28165.50  18553.33  65.87
1296.2  28076.33  18305.93  65.20
1300.1  27971.71  18027.41  64.45
1303.9  27830.79  17690.48  63.56
1307.8  27679.51  17321.58  62.58
1311.7  27513.83  16933.05  61.54
1315.6  27356.90  16534.50  60.44
1319.5  27190.78  16097.98  59.20
1323.3  27036.43  15658.94  57.92
1327.2  26898.46  15225.31  56.60
1331.1  26745.75  14784.20  55.28
1335.0  26551.82  14332.40  53.98
1338.8  26417.20  13929.99  52.73
1342.7  26306.22  13557.84  51.54
1346.5  26068.84  13137.36  50.39
1350.4  25867.11  12760.38  49.33
1354.3  25587.95  12383.23  48.39
1358.1  25293.52  12019.63  47.52
1362.0  25095.25  11700.42  46.62
1365.8  25024.00  11419.87  45.64
1369.7  25106.98  11155.58  44.43
1373.5  25078.13  10757.39  42.90
1377.4  24917.97  10222.89  41.03
1381.2  24782.40  9629.13  38.85
1385.1  24754.66  9044.41  36.54
1389.0  24692.16  8431.24  34.15
1392.8  24567.88  7809.55  31.79
1396.6  24460.52  7253.13  29.65
1400.5  24320.99  6762.04  27.80
1404.3  24225.89  6363.22  26.27
1408.2  24204.64  6065.79  25.06
1412.0  24174.50  5827.39  24.11
1415.8  24201.79  5654.01  23.36
1419.6  24176.54  5511.17  22.80
1423.5  24162.30  5403.94  22.37
1427.3  24156.22  5322.85  22.04
1431.1  24149.78  5266.13  21.81
1434.9  24082.82  5212.34  21.64
1438.8  24045.91  5174.03  21.52
1442.6  24021.66  5154.53  21.46
1446.4  23948.95  5128.63  21.41
1450.2  23899.20  5112.29  21.39
1454.0  23823.72  5095.80  21.39
1457.8  23805.13  5104.40  21.44
1461.6  23794.65  5120.97  21.52
1465.4  23719.51  5136.15  21.65
1469.2  23598.58  5159.70  21.86
1473.0  23505.47  5197.63  22.11
1476.8  23479.35  5267.50  22.43
1480.7  23444.07  5345.77  22.80
1484.4  23358.60  5426.40  23.23
1488.2  23294.76  5527.48  23.73
1492.0  23212.99  5627.39  24.24
1495.8  23134.48  5720.11  24.73
1499.6  23068.04  5803.09  25.16
1503.4  22989.82  5876.35  25.56
1507.2  22924.40  5949.28  25.95
1510.9  22832.54  6013.70  26.34
1514.7  22729.47  6059.31  26.66
1518.5  22650.58  6116.96  27.01
1522.3  22564.73  6175.19  27.37
1526.0  22502.83  6250.92  27.78
1529.8  22457.39  6339.57  28.23
1533.6  22379.96  6417.95  28.68
1537.3  22300.49  6490.70  29.11
1541.1  22218.14  6560.99  29.53
1544.8  22130.40  6636.80  29.99
1548.6  22049.49  6706.36  30.42
1552.4  21992.28  6770.82  30.79
1556.1  21940.64  6829.14  31.13
1559.9  21881.16  6884.35  31.46
1563.6  21806.79  6928.10  31.77
1567.3  21732.27  6982.78  32.13
1571.1  21585.13  7048.58  32.65
1574.8  21494.94  7139.52  33.21
1578.6  21441.85  7203.00  33.59
1582.3  21360.05  7233.89  33.87
1586.0  21278.88  7267.07  34.15
1589.8  21182.42  7295.80  34.44
1593.5  21087.16  7320.50  34.72
1597.2  21011.15  7352.66  34.99
1600.9  20910.91  7376.41  35.28
1604.7  20817.19  7387.62  35.49
1608.4  20751.75  7412.08  35.72
1612.1  20653.79  7446.90  36.06
1615.8  20554.46  7477.05  36.38
1619.5  20509.10  7507.95  36.61
1623.2  20415.20  7526.05  36.86
1626.9  20293.94  7531.61  37.11
1630.6  20187.64  7539.11  37.35
1634.3  20108.09  7555.44  37.57
1638.0  20016.12  7548.04  37.71
1641.7  19907.78  7531.87  37.83
1645.4  19793.59  7512.37  37.95
1649.1  19676.58  7480.31  38.02
1652.8  19573.89  7464.73  38.14
1656.4  19468.81  7441.08  38.22
1660.1  19373.12  7420.62  38.30
1663.8  19253.37  7394.70  38.41
1667.5  19154.03  7374.98  38.50
1671.1  19073.44  7346.72  38.52
1674.8  18955.63  7297.62  38.50
1678.5  18920.35  7276.64  38.46
1682.1  18926.99  7265.68  38.39
1685.8  18934.59  7248.02  38.28
1689.5  18875.64  7198.49  38.14
1693.1  18777.51  7143.18  38.04
1696.8  18693.63  7083.84  37.89
1700.4  18605.80  7014.99  37.70
1704.0  18533.22  6943.97  37.47
1707.7  18380.44  6838.44  37.20
1711.3  18186.09  6717.39  36.94
1715.0  18064.01  6618.29  36.64
1718.6  17962.81  6532.30  36.37
1722.2  17869.77  6449.43  36.09
1725.9  17778.98  6363.88  35.79
1729.5  17683.82  6293.67  35.59
1733.1  17615.86  6237.40  35.41
1736.7  17543.89  6186.22  35.26
1740.3  17426.02  6119.23  35.12
1744.0  17375.79  6054.69  34.85
1747.5  17289.32  5973.52  34.55
1751.2  17148.24  5869.78  34.23
1754.8  17043.21  5783.63  33.94
1758.4  16959.78  5704.91  33.64
1762.0  16844.84  5614.94  33.33
1765.5  16763.61  5556.02  33.14
1769.1  16735.20  5522.40  33.00
1772.7  16687.95  5479.53  32.84
1776.3  16608.65  5431.47  32.70
1779.9  16528.93  5385.41  32.58
1783.5  16504.40  5352.67  32.43
1787.0  16420.93  5309.54  32.33
1790.6  16313.97  5264.73  32.27
1794.2  16250.54  5236.93  32.23
1797.8  16183.76  5210.69  32.20
1801.3  16118.56  5193.73  32.22
1804.9  16020.38  5165.13  32.24
1808.4  15971.30  5152.06  32.26
1812.0  15882.75  5121.40  32.25
1815.5  15784.84  5091.11  32.25
1819.1  15650.89  5048.34  32.26
1822.6  15532.45  5010.10  32.26
1826.2  15446.30  4977.50  32.22
1829.7  15337.22  4928.29  32.13
1833.2  15178.78  4861.00  32.02
1836.8  15030.02  4799.80  31.93
1840.3  14950.04  4751.21  31.78
1843.8  14886.20  4711.68  31.65
1847.3  14837.06  4677.92  31.53
1850.8  14793.41  4615.30  31.20
1854.3  14722.56  4533.40  30.79
1857.8  14658.80  4433.87  30.25
1861.3  14629.20  4313.89  29.49
1864.8  14572.84  4148.05  28.46
1868.3  14425.58  3927.13  27.22
1871.8  14284.80  3717.12  26.02
1875.3  14255.61  3514.27  24.65
1878.8  14246.03  3323.04  23.33
1882.3  14193.40  3135.81  22.09
1885.8  14118.50  2947.38  20.88
1889.3  13979.52  2780.33  19.89
1892.7  13865.36  2673.91  19.28
1896.2  13804.86  2578.96  18.68
1899.7  13707.11  2508.42  18.30
1901.7  12697.20  1383.37  10.90
1904.5  12812.38  1347.19  10.51
1907.2  12777.50  1323.67  10.36
1910.0  12693.31  1322.94  10.42
1912.7  12674.55  1323.77  10.44
1915.5  12622.22  1314.66  10.42
1918.2  12592.16  1316.83  10.46
1921.0  12470.84  1299.69  10.42
1923.7  12502.92  1310.66  10.48
1926.5  12525.14  1312.44  10.48
1929.2  12499.59  1298.70  10.39
1932.0  12466.20  1304.03  10.46
1934.7  12450.39  1306.95  10.50
1937.4  12388.06  1299.60  10.49
1940.2  12333.29  1303.09  10.57
1942.9  12377.93  1316.46  10.64
1945.6  12406.16  1322.76  10.66
1948.3  12364.25  1317.65  10.66
1951.1  12353.04  1335.44  10.81
1953.8  12345.00  1344.00  10.89
1956.5  12249.55  1340.77  10.95
1959.2  12291.89  1362.44  11.08
1961.9  12307.40  1367.82  11.11
1964.6  12224.28  1379.41  11.28
1967.3  12284.97  1396.31  11.37
1970.0  12156.72  1395.15  11.48
1972.8  12093.19  1413.96  11.69
1975.5  12180.79  1422.36  11.68
1978.2  12109.24  1417.17  11.70
1980.9  12027.29  1440.98  11.98
1983.5  11996.88  1443.50  12.03
1986.2  11983.38  1438.51  12.00
1988.9  11983.38  1468.58  12.26
1991.6  11899.51  1477.30  12.41
1994.3  11798.84  1474.02  12.49
1997.0  11807.25  1494.53  12.66
1999.7  11770.96  1504.75  12.78
2002.3  11768.44  1520.80  12.92
2005.0  11742.55  1530.38  13.03
2007.7  11687.40  1539.40  13.17
2010.4  11651.26  1541.70  13.23
2013.0  11630.36  1551.48  13.34
2015.7  11528.64  1553.44  13.47
2018.4  11457.30  1550.71  13.53
2021.0  11452.33  1583.83  13.83
2023.7  11380.16  1581.05  13.89
2026.4  11323.00  1576.39  13.92
2029.0  11263.54  1601.71  14.22
2031.7  11193.43  1596.11  14.26
2034.3  11193.43  1599.87  14.29
2037.0  11130.51  1609.24  14.46
2039.6  11076.09  1616.73  14.60
2042.3  11047.98  1613.85  14.61
2044.9  11026.46  1627.84  14.76
2047.5  11001.21  1640.93  14.92
2050.2  10900.40  1628.67  14.94
2052.8  10894.80  1652.93  15.17
2055.4  10822.84  1648.31  15.23
2058.1  10738.00  1624.93  15.13
2060.7  10718.83  1650.92  15.40
2063.3  10653.43  1655.28  15.54
2065.9  10619.50  1649.88  15.54
2068.6  10577.63  1670.35  15.79
2071.2  10537.83  1674.93  15.89
2073.8  10490.95  1667.81  15.90
2076.4  10463.25  1680.26  16.06
2079.0  10439.15  1696.30  16.25
2081.6  10423.40  1699.25  16.30
2084.2  10414.77  1710.87  16.43
2086.8  10346.04  1710.20  16.53
2089.4  10282.92  1695.38  16.49
2092.1  10234.00  1713.22  16.74
2094.7  10195.43  1718.54  16.86
2097.2  10197.17  1718.89  16.86
2099.8  10202.45  1743.11  17.09
2102.4  10082.46  1736.33  17.22
2105.0  9986.40  1719.50  17.22
2107.6  9963.47  1737.49  17.44
2110.2  9945.83  1748.57  17.58
2112.8  9950.08  1747.59  17.56
2115.3  9950.34  1765.68  17.74
2117.9  9955.62  1770.02  17.78
2120.5  9928.49  1769.41  17.82
2123.1  9866.03  1777.43  18.02
2125.6  9842.13  1783.36  18.12
2128.2  9772.14  1777.46  18.19
2130.8  9719.78  1795.95  18.48
2133.3  9694.67  1803.02  18.60
2135.9  9628.08  1784.61  18.54
2138.4  9561.93  1788.63  18.71
2141.0  9493.76  1774.75  18.69
2143.6  9481.01  1769.75  18.67
2146.1  9385.04  1761.04  18.76
2148.7  9294.55  1755.15  18.88
2151.2  9319.20  1768.80  18.98
2153.8  9286.22  1784.64  19.22
2156.3  9196.68  1773.97  19.29
2158.8  9176.01  1752.31  19.10
2161.4  9166.37  1759.17  19.19
2163.9  9107.40  1756.22  19.28
2166.4  9056.27  1741.48  19.23
2169.0  9041.49  1755.27  19.41
2171.5  8982.35  1752.32  19.51
2174.0  8919.05  1733.44  19.44
2176.5  8910.20  1739.18  19.52
2179.1  8872.37  1723.68  19.43
2181.6  8820.83  1717.53  19.47
2184.1  8802.64  1724.80  19.59
2186.6  8815.58  1741.78  19.76
2189.1  8766.51  1729.12  19.72
2191.6  8725.27  1723.71  19.76
2194.1  8759.24  1727.27  19.72
2196.6  8743.02  1706.26  19.52
2199.2  8762.69  1726.72  19.71
2201.7  8728.52  1728.75  19.81
2204.1  8693.38  1716.44  19.74
2206.6  8724.47  1724.50  19.77
2209.1  8690.36  1729.75  19.90
2211.6  8648.75  1709.19  19.76
2214.1  8641.19  1703.15  19.71
2216.6  8629.81  1716.85  19.89
2219.1  8603.23  1691.53  19.66
2221.6  8565.00  1672.39  19.53
2224.0  8580.12  1675.13  19.52
2226.5  8553.64  1664.06  19.45
2229.0  8526.93  1673.66  19.63
2231.5  8456.64  1640.52  19.40
2233.9  8447.09  1621.43  19.20
2236.4  8434.10  1649.51  19.56
2238.9  8377.75  1622.34  19.36
2241.3  8418.52  1592.24  18.91
2243.8  8391.31  1601.31  19.08
2246.2  8272.81  1584.26  19.15
2248.7  8260.98  1558.09  18.86
2251.2  8270.85  1556.55  18.82
2253.6  8217.60  1547.52  18.83
2256.1  8198.40  1523.20  18.58
2258.5  8205.80  1520.02  18.52
2260.9  8176.22  1508.44  18.45
2263.4  8125.75  1482.87  18.25
2265.8  8124.16  1470.71  18.10
2268.3  8073.80  1453.39  18.00
2270.7  8110.40  1436.82  17.72
2273.1  8107.19  1430.46  17.64
2275.6  8037.12  1418.24  17.65
2278.0  8047.94  1410.50  17.53
2280.4  8050.71  1407.21  17.48
2282.8  7936.92  1386.06  17.46
2285.3  7936.09  1385.55  17.46
2287.7  8013.06  1394.09  17.40
2290.1  7946.20  1367.85  17.21
2292.5  7908.89  1328.07  16.79
2294.9  7966.56  1319.86  16.57
2297.3  7878.36  1314.38  16.68
2299.7  7782.17  1297.69  16.68
2302.1  7817.38  1283.26  16.42
2304.5  7722.40  1243.95  16.11
2306.9  7647.92  1219.12  15.94
2309.3  7632.91  1218.60  15.97
2311.7  7536.00  1207.59  16.02
2314.1  7439.51  1197.25  16.09
2316.5  7426.90  1209.58  16.29
2318.9  7433.98  1210.09  16.28
2321.3  7420.20  1200.39  16.18
2323.7  7439.58  1207.32  16.23
2326.1  7403.11  1203.63  16.26
2328.4  7412.50  1201.52  16.21
2330.8  7505.15  1199.73  15.99
2333.2  7417.12  1183.34  15.95
2335.6  7356.75  1174.92  15.97
2337.9  7411.84  1174.10  15.84
2340.3  7376.47  1153.14  15.63
2342.7  7282.70  1141.14  15.67
2345.0  7270.29  1143.77  15.73
2347.4  7284.50  1133.33  15.56
2349.7  7133.68  1086.43  15.23
2352.1  7080.04  1092.10  15.43
2354.4  7143.83  1110.40  15.54
2356.8  7126.82  1069.09  15.00
2359.2  7067.67  1084.78  15.35
2361.5  7038.06  1079.20  15.33
2363.8  7031.06  1068.64  15.20
2366.2  7039.27  1095.98  15.57
2368.5  7035.45  1062.07  15.10
2370.9  7023.13  1021.41  14.54
2373.2  6987.82  1029.74  14.74
2375.5  6900.63  1025.67  14.86
2377.9  6892.20  1005.87  14.59
2380.2  6890.83  1021.71  14.83
2382.5  6864.93  994.05  14.48
2384.8  6830.08  969.76  14.20
2387.2  6784.02  1011.12  14.90
2389.5  6780.31  1002.57  14.79
2391.8  6787.76  988.69  14.57
2394.1  6727.26  994.85  14.79
2396.4  6676.90  978.96  14.66
2398.7  6732.64  959.72  14.25
2401.0  6690.59  941.20  14.07
2403.3  6603.48  926.28  14.03
2405.6  6572.81  914.70  13.92
2407.9  6583.14  920.17  13.98
2410.2  6542.40  922.45  14.10
2412.5  6479.13  914.70  14.12
2414.8  6475.24  926.02  14.30
2417.1  6452.08  898.13  13.92
2419.4  6434.35  882.23  13.71
2421.7  6386.85  881.37  13.80
2424.0  6345.28  875.27  13.79
2426.2  6355.80  882.75  13.89
2428.5  6327.75  876.15  13.85
2430.8  6349.25  881.08  13.88
2433.1  6300.57  851.88  13.52
2435.4  6204.86  841.12  13.56
2437.6  6227.24  842.98  13.54
2439.9  6165.27  810.43  13.15
2442.2  6149.09  822.91  13.38
2444.4  6162.60  813.64  13.20
2446.7  6079.44  778.67  12.81
2448.9  6081.55  807.32  13.27
2451.2  6103.04  818.51  13.41
2453.4  6038.72  805.57  13.34
2455.7  6026.93  796.70  13.22
2457.9  5958.48  775.34  13.01
2460.2  5949.23  758.30  12.75
2462.4  5977.92  777.92  13.01
2464.7  5891.98  769.62  13.06
2466.9  5829.36  734.02  12.59
2469.2  5872.39  756.20  12.88
2471.4  5796.90  733.09  12.65
2473.6  5737.62  716.37  12.49
2475.9  5730.24  722.49  12.61
2478.1  5663.45  717.33  12.67
2480.3  5645.91  698.49  12.37
2482.5  5682.93  686.24  12.08
2484.8  5614.17  689.33  12.28
2487.0  5547.59  669.07  12.06
2489.2  5555.75  716.14  12.89
2491.4  5471.72  719.83  13.16
2493.6  5479.00  708.06  12.92
2495.8  5550.75  723.21  13.03
2498.0  5512.53  710.68  12.89
2500.2  5509.95  671.19  12.18
2502.4  5736.48  722.24  12.59
2504.6  5803.02  738.68  12.73
2506.8  5806.03  691.66  11.91
