/*** Spectra Vista SIG Data ***/
name= GS2.sig
comm= Resampled spectral data SIG file reprocesed for matching/overlap;Averaged Ref/Tar of files: GD5S4,GD5S5,GD5S6
data=
346.0  366.28  175.81  48.00
356.0  580.02  222.44  38.35
366.0  764.64  254.17  33.24
376.0  1054.72  294.43  27.92
386.0  1321.48  316.82  23.97
396.0  1668.03  404.19  24.23
406.0  2032.56  453.92  22.33
416.0  2484.09  591.70  23.82
426.0  2825.64  695.44  24.61
436.0  3449.00  862.17  25.00
446.0  4016.12  1044.98  26.02
456.0  4559.32  1256.50  27.56
466.0  5430.31  1593.28  29.34
476.0  6200.82  1861.01  30.01
486.0  6683.18  2071.19  30.99
496.0  7759.25  2744.61  35.37
506.0  8620.16  3649.33  42.33
516.0  8958.85  4548.94  50.78
526.0  9944.82  5831.25  58.64
536.0  11306.85  7272.52  64.32
546.0  12443.50  8525.22  68.51
556.0  12537.38  8977.27  71.60
566.0  13373.89  9877.35  73.86
576.0  14717.24  11023.84  74.90
586.0  15778.76  11900.61  75.42
596.0  16643.71  12587.95  75.63
606.0  16939.11  12772.46  75.40
616.0  18066.83  13364.85  73.97
626.0  19907.23  14672.41  73.70
636.0  19564.29  14018.37  71.65
646.0  19659.63  14024.09  71.33
656.0  19192.34  13046.65  67.98
666.0  20282.32  11882.17  58.58
676.0  21596.49  11766.55  54.48
686.0  23461.59  14704.34  62.67
696.0  24117.97  20437.30  84.74
706.0  24329.51  24331.80  100.01
716.0  23886.32  25750.76  107.81
726.0  23086.04  25844.76  111.95
736.0  22569.89  25760.96  114.14
746.0  23814.03  27674.11  116.21
756.0  24266.56  28339.50  116.78
766.0  25278.75  29959.20  118.52
776.0  25925.56  30943.07  119.35
786.0  26060.85  31426.36  120.59
796.0  25580.60  30717.33  120.08
806.0  24835.91  29980.77  120.72
816.0  24700.16  29867.89  120.92
826.0  24523.61  29452.74  120.10
836.0  24895.68  29581.27  118.82
846.0  25503.02  30381.15  119.13
856.0  25926.24  30786.06  118.74
866.0  26083.86  30952.35  118.66
876.0  26142.33  30954.67  118.41
886.0  26278.55  30763.73  117.07
896.0  26059.51  30147.48  115.69
906.0  26042.54  29754.40  114.25
916.0  25872.97  29104.70  112.49
926.0  25848.12  28272.97  109.38
936.0  26639.41  27846.81  104.53
946.0  27323.34  27139.21  99.33
956.0  27983.10  26072.20  93.17
966.0  28580.08  25875.96  90.54
976.0  29061.46  26422.82  90.92
986.0  29600.63  23631.43  79.83
996.0  29854.54  24678.77  82.66
1006.0  29773.67  25268.80  84.87
1016.0  29961.72  26168.83  87.34
1026.0  29958.18  26957.79  89.98
1036.0  29727.72  27481.10  92.44
1046.0  29945.01  28348.10  94.67
1056.0  30102.43  29034.66  96.45
1066.0  30105.99  29312.75  97.37
1076.0  29996.46  29206.81  97.37
1086.0  30084.70  29048.57  96.56
1096.0  30105.40  28595.94  94.99
1106.0  30068.25  27988.04  93.08
1116.0  29868.35  27162.89  90.94
1126.0  29809.45  26020.84  87.29
1136.0  29822.39  23986.53  80.43
1146.0  29809.91  21610.34  72.49
1156.0  29735.93  20118.49  67.66
1166.0  29672.84  19598.57  66.05
1176.0  29648.36  19415.29  65.49
1186.0  29704.47  19298.27  64.97
1196.0  29371.18  18976.50  64.61
1206.0  29121.56  18838.03  64.69
1216.0  28966.90  18873.48  65.16
1226.0  28785.60  18975.33  65.92
1236.0  28657.09  19082.07  66.59
1246.0  28484.90  19169.47  67.30
1256.0  28333.73  19195.07  67.75
1266.0  28154.79  19096.85  67.83
1276.0  28214.44  19076.70  67.61
1286.0  28244.54  18846.53  66.73
1296.0  28080.90  18318.61  65.24
1306.0  27749.33  17491.85  63.04
1316.0  27339.86  16489.73  60.31
1326.0  26940.91  15358.73  57.01
1336.0  26516.39  14226.50  53.65
1346.0  26100.07  13192.69  50.55
1356.0  25456.23  12220.57  48.01
1366.0  25028.25  11406.32  45.57
1376.0  24975.46  10414.76  41.70
1386.0  24740.24  8902.91  35.99
1396.0  24477.47  7340.98  29.99
1406.0  24216.63  6233.57  25.74
1416.0  24200.46  5646.49  23.33
1426.0  24158.30  5350.59  22.15
1436.0  24072.41  5201.53  21.61
1446.0  23956.60  5131.36  21.42
1456.0  23813.94  5100.33  21.42
1466.0  23700.42  5139.87  21.69
1476.0  23484.85  5252.79  22.37
1486.0  23331.72  5468.96  23.44
1496.0  23130.98  5724.48  24.75
1506.0  22945.06  5926.25  25.83
1516.0  22702.48  6079.03  26.78
1526.0  22502.83  6250.92  27.78
1536.0  22328.41  6465.14  28.95
1546.0  22104.85  6658.77  30.12
1556.0  21942.04  6827.56  31.12
1566.0  21758.45  6963.57  32.00
1576.0  21478.18  7159.57  33.33
1586.0  21278.88  7267.07  34.15
1596.0  21035.80  7342.23  34.90
1606.0  20794.20  7396.21  35.57
1616.0  20552.01  7478.72  36.39
1626.0  20323.44  7530.26  37.05
1636.0  20065.83  7552.04  37.64
1646.0  19774.62  7507.17  37.96
1656.0  19480.49  7443.71  38.21
1666.0  19194.30  7382.97  38.46
1676.0  18944.19  7290.82  38.49
1686.0  18931.40  7245.34  38.27
1696.0  18711.77  7096.67  37.93
1706.0  18450.64  6886.93  37.33
1716.0  18035.90  6594.40  36.56
1726.0  17776.34  6361.93  35.79
1736.0  17557.88  6196.17  35.29
1746.0  17326.38  6008.31  34.68
1756.0  17015.40  5757.39  33.84
1766.0  16759.66  5551.35  33.12
1776.0  16615.26  5435.48  32.71
1786.0  16444.78  5321.86  32.36
1796.0  16217.15  5223.81  32.21
1806.0  16004.96  5161.02  32.25
1816.0  15766.24  5085.17  32.25
1826.0  15451.08  4979.31  32.23
1836.0  15063.08  4813.40  31.95
1846.0  14855.31  4690.46  31.57
1856.0  14691.59  4485.06  30.53
1866.0  14522.35  4072.31  28.04
1876.0  14253.69  3476.03  24.39
1886.0  14110.56  2937.84  20.82
1896.0  13808.32  2584.38  18.72
1906.0  12793.00  1334.12  10.43
1916.0  12616.65  1315.06  10.42
1926.0  12521.17  1312.12  10.48
1936.0  12420.38  1303.41  10.49
1946.0  12399.95  1322.00  10.66
1956.0  12267.23  1341.37  10.93
1966.0  12255.75  1388.17  11.33
1976.0  12167.54  1421.40  11.68
1986.0  11984.38  1438.88  12.01
1996.0  11804.14  1486.93  12.60
2006.0  11722.12  1533.72  13.08
2016.0  11520.71  1553.14  13.48
2026.0  11331.47  1577.08  13.92
2036.0  11153.81  1605.77  14.40
2046.0  11015.78  1633.38  14.83
2056.0  10803.98  1643.11  15.21
2066.0  10617.95  1650.64  15.55
2076.0  10467.51  1678.34  16.03
2086.0  10367.19  1710.41  16.50
2096.0  10196.33  1718.72  16.86
2106.0  9977.58  1726.42  17.30
2116.0  9951.76  1766.85  17.75
2126.0  9831.36  1782.45  18.13
2136.0  9625.43  1784.77  18.54
2146.0  9388.88  1761.39  18.76
2156.0  9207.43  1775.25  19.28
2166.0  9064.45  1743.84  19.24
2176.0  8911.97  1738.03  19.50
2186.0  8812.47  1737.70  19.72
2196.0  8746.91  1711.30  19.56
2206.0  8717.01  1722.57  19.76
2216.0  8632.54  1713.56  19.85
2226.0  8558.94  1666.27  19.47
2236.0  8436.18  1645.02  19.50
2246.0  8282.68  1585.68  19.14
2256.0  8199.17  1524.17  18.59
2266.0  8120.13  1469.32  18.09
2276.0  8038.92  1416.95  17.63
2286.0  7958.54  1388.04  17.44
2296.0  7926.13  1317.35  16.62
2306.0  7675.85  1228.43  16.00
2316.0  7429.53  1207.01  16.25
2326.0  7404.63  1203.78  16.26
2336.0  7366.33  1174.78  15.95
2346.0  7276.21  1139.42  15.66
2356.0  7132.49  1082.86  15.18
2366.0  7038.59  1093.70  15.54
2376.0  6898.87  1021.54  14.81
2386.0  6807.05  990.44  14.55
2396.0  6685.66  981.72  14.68
2406.0  6574.61  915.65  13.93
2416.0  6463.16  911.47  14.10
2426.0  6354.84  882.07  13.88
2436.0  6210.96  841.63  13.55
2446.0  6104.75  789.31  12.93
2456.0  6017.59  793.79  13.19
2466.0  5854.98  748.58  12.79
2476.0  5727.20  722.26  12.61
2486.0  5577.85  678.28  12.16
2496.0  5547.28  722.07  13.02
2506.0  5804.94  708.76  12.21
