/*** Spectra Vista SIG Data ***/
name= GS.sig
comm= SIG file reprocesed for matching/overlap;Averaged Ref/Tar of files: GS1,GS2,GS3
data=
346.4  468.20  213.40  45.58
347.9  473.76  210.21  44.37
349.5  521.04  218.40  41.92
351.1  558.48  221.52  39.66
352.6  585.06  226.65  38.74
354.2  625.05  233.44  37.35
355.7  673.50  245.83  36.50
357.3  724.71  255.44  35.25
358.8  751.43  263.29  35.04
360.4  798.47  267.33  33.48
361.9  821.87  264.67  32.20
363.5  851.78  271.23  31.84
365.1  887.68  273.93  30.86
366.6  918.37  273.90  29.82
368.2  973.68  275.32  28.28
369.7  1008.89  277.53  27.51
371.3  1073.36  280.96  26.18
372.8  1148.72  281.09  24.47
374.4  1191.49  291.47  24.46
375.9  1247.87  299.00  23.96
377.4  1278.23  297.06  23.24
379.0  1330.29  300.22  22.57
380.5  1360.26  293.39  21.57
382.1  1412.49  290.58  20.57
383.6  1460.03  291.06  19.94
385.2  1529.00  294.25  19.24
386.7  1608.26  305.95  19.02
388.3  1679.42  307.08  18.28
389.8  1759.55  318.42  18.10
391.3  1843.67  331.42  17.98
392.9  1897.62  348.99  18.39
394.4  1955.58  357.09  18.26
395.9  2019.02  380.99  18.87
397.5  2131.80  390.83  18.33
399.0  2240.25  394.49  17.61
400.6  2303.62  395.26  17.16
402.1  2342.64  385.28  16.45
403.6  2375.92  382.80  16.11
405.1  2451.81  387.69  15.81
406.7  2542.40  397.97  15.65
408.2  2650.73  415.06  15.66
409.7  2746.24  430.08  15.66
411.3  2843.51  446.76  15.71
412.8  2936.43  470.05  16.01
414.3  3034.90  487.05  16.05
415.8  3152.50  508.33  16.12
417.4  3253.58  531.30  16.33
418.9  3339.60  546.48  16.36
420.4  3424.70  559.15  16.33
421.9  3487.22  567.89  16.28
423.5  3546.87  580.64  16.37
425.0  3613.98  589.60  16.31
426.5  3695.85  600.57  16.25
428.0  3801.23  606.86  15.96
429.5  3926.30  618.84  15.76
431.1  4071.24  636.62  15.64
432.6  4225.66  666.47  15.77
434.1  4373.60  684.66  15.65
435.6  4514.36  706.92  15.66
437.1  4642.95  728.65  15.69
438.6  4769.06  756.53  15.86
440.1  4906.69  778.46  15.87
441.6  5042.30  809.01  16.04
443.1  5179.95  839.70  16.21
444.7  5318.34  878.17  16.51
446.2  5433.01  916.38  16.87
447.7  5551.25  947.14  17.06
449.2  5676.48  983.52  17.33
450.7  5788.64  1013.65  17.51
452.2  5916.62  1042.11  17.61
453.7  6028.91  1076.53  17.86
455.2  6201.73  1114.10  17.96
456.7  6390.56  1150.45  18.00
458.2  6607.30  1199.37  18.15
459.7  6823.25  1237.83  18.14
461.2  7031.76  1279.04  18.19
462.7  7219.07  1319.23  18.27
464.2  7396.86  1349.32  18.24
465.7  7583.22  1386.85  18.29
467.2  7742.35  1419.37  18.33
468.7  7912.00  1464.67  18.51
470.2  8015.91  1501.01  18.73
471.7  8177.13  1540.59  18.84
473.2  8446.52  1576.32  18.66
474.6  8688.33  1599.93  18.41
476.1  8747.12  1622.51  18.55
477.6  8779.39  1649.52  18.79
479.1  8829.54  1662.70  18.83
480.6  8916.06  1686.92  18.92
482.1  9046.91  1714.33  18.95
483.6  9204.08  1751.28  19.03
485.1  9394.00  1796.05  19.12
486.6  9626.34  1856.74  19.29
488.0  9867.00  1924.54  19.50
489.5  10130.90  2000.99  19.75
491.0  10387.73  2089.80  20.12
492.5  10649.88  2186.46  20.53
494.0  10928.34  2296.63  21.02
495.4  11158.95  2405.70  21.56
496.9  11406.10  2536.73  22.24
498.4  11649.48  2674.72  22.96
499.9  11878.23  2825.29  23.79
501.4  12101.58  2996.17  24.76
502.8  12308.24  3173.36  25.78
504.3  12497.40  3367.80  26.95
505.8  12681.02  3574.59  28.19
507.2  12808.72  3789.84  29.59
508.7  12896.48  4005.40  31.06
510.2  12964.78  4231.86  32.64
511.6  13008.39  4463.68  34.31
513.1  13093.74  4714.27  36.00
514.6  13195.49  4980.80  37.75
516.0  13281.41  5254.81  39.57
517.5  13429.99  5559.07  41.39
519.0  13603.01  5884.26  43.26
520.5  13772.72  6210.13  45.09
521.9  13993.28  6567.71  46.93
523.4  14243.35  6926.02  48.63
524.8  14493.24  7280.96  50.24
526.3  14778.04  7645.93  51.74
527.8  15074.01  8005.61  53.11
529.2  15339.71  8333.40  54.33
530.7  15629.94  8667.83  55.46
532.1  15903.48  8971.96  56.42
533.6  16214.37  9282.95  57.25
535.0  16534.98  9590.54  58.00
536.5  16856.03  9885.27  58.65
538.0  17178.24  10176.43  59.24
539.4  17501.02  10440.15  59.65
540.9  17879.62  10734.57  60.04
542.3  18237.67  10990.36  60.26
543.8  18504.51  11201.83  60.54
545.2  18600.74  11328.81  60.91
546.6  18637.00  11414.02  61.24
548.1  18690.38  11499.48  61.53
549.5  18745.60  11569.56  61.72
551.0  18790.92  11633.09  61.91
552.4  18868.34  11697.41  61.99
553.9  18922.09  11735.84  62.02
555.3  18999.63  11767.28  61.93
556.8  19143.87  11819.80  61.74
558.2  19276.31  11857.50  61.51
559.6  19441.66  11903.51  61.23
561.1  19660.88  11969.75  60.88
562.5  19883.82  12036.91  60.54
564.0  20177.05  12122.08  60.08
565.4  20444.07  12175.34  59.55
566.8  20774.24  12253.33  58.98
568.3  21077.79  12292.76  58.32
569.7  21403.31  12325.04  57.58
571.1  21706.83  12332.70  56.81
572.6  22010.94  12329.28  56.01
574.0  22299.75  12324.40  55.27
575.4  22570.31  12305.25  54.52
576.9  22820.49  12288.05  53.85
578.3  23040.88  12262.85  53.22
579.7  23243.15  12230.02  52.62
581.1  23410.31  12187.63  52.06
582.6  23592.46  12153.20  51.51
584.0  23735.52  12110.15  51.02
585.4  23971.18  12097.20  50.47
586.8  24286.87  12130.04  49.94
588.3  24642.54  12198.42  49.50
589.7  24935.04  12239.76  49.09
591.1  25126.37  12245.14  48.73
592.5  25213.30  12212.98  48.44
594.0  25248.06  12159.68  48.16
595.4  25246.58  12101.91  47.93
596.8  25248.80  12048.47  47.72
598.2  25256.70  11993.24  47.49
599.6  25254.00  11935.62  47.26
601.0  25321.45  11900.07  47.00
602.4  25392.58  11863.83  46.72
603.9  25508.50  11839.29  46.41
605.3  25652.08  11812.46  46.05
606.7  25770.60  11757.60  45.62
608.1  26003.60  11740.00  45.15
609.5  26249.20  11714.07  44.63
610.9  26543.12  11704.59  44.10
612.3  26820.62  11678.65  43.54
613.7  27191.20  11682.81  42.97
615.1  27470.34  11628.36  42.33
616.5  27748.85  11585.96  41.75
617.9  28163.94  11616.53  41.25
619.3  28559.37  11651.77  40.80
620.7  29021.55  11746.97  40.48
622.1  29524.34  11810.40  40.00
623.5  30070.32  11862.36  39.45
624.9  30686.25  11935.18  38.89
626.3  31117.56  11924.80  38.32
627.7  30854.43  11709.44  37.95
629.1  30617.27  11529.11  37.66
630.5  30534.25  11419.94  37.40
631.9  30583.88  11379.41  37.21
633.3  30636.73  11362.24  37.09
634.7  30802.72  11390.25  36.98
636.1  30887.16  11348.89  36.74
637.5  30991.21  11282.29  36.40
638.9  31137.59  11210.02  36.00
640.2  31275.86  11105.23  35.51
641.6  31334.94  10963.68  34.99
643.0  31307.82  10768.97  34.40
644.4  31297.86  10576.32  33.79
645.8  31223.60  10361.84  33.19
647.2  31327.01  10201.10  32.56
648.5  31378.61  10030.74  31.97
649.9  31215.99  9823.13  31.47
651.3  31061.55  9655.15  31.08
652.7  30880.50  9468.15  30.66
654.1  30705.72  9147.10  29.79
655.5  30448.41  8793.65  28.88
656.8  30219.54  8455.14  27.98
658.2  30347.48  8220.11  27.09
659.6  30667.01  8049.11  26.25
660.9  30915.41  7850.55  25.39
662.3  31175.28  7632.51  24.48
663.7  31418.10  7422.80  23.63
665.0  31622.76  7226.97  22.85
666.4  31821.65  7043.72  22.13
667.8  32088.83  6910.28  21.53
669.1  32304.87  6788.04  21.01
670.5  32567.66  6710.98  20.61
671.9  32723.64  6647.68  20.31
673.2  32957.22  6638.75  20.14
674.6  33165.65  6660.94  20.08
676.0  33416.99  6733.55  20.15
677.3  33670.84  6848.56  20.34
678.7  33959.63  7011.80  20.65
680.0  34360.72  7278.01  21.18
681.4  34770.40  7637.07  21.96
682.8  35166.95  8110.38  23.06
684.1  35575.02  8723.52  24.52
685.5  35948.61  9472.26  26.35
686.8  36307.14  10390.22  28.62
688.2  36654.12  11465.62  31.28
689.5  36792.82  12636.66  34.35
690.9  36894.22  13942.23  37.79
692.2  37000.50  15361.20  41.52
693.6  37086.31  16887.17  45.53
694.9  37102.94  18424.38  49.66
696.2  37172.03  20006.55  53.82
697.6  37238.58  21578.38  57.95
698.9  37321.68  23142.24  62.01
700.3  37412.04  24662.79  65.92
701.6  37521.51  26131.37  69.64
703.0  37648.39  27528.12  73.12
704.3  37727.46  28799.98  76.34
705.6  37779.39  30003.66  79.42
707.0  37853.11  31137.13  82.26
708.3  37804.36  32122.90  84.97
709.6  37779.31  33025.00  87.42
711.0  37700.05  33818.78  89.70
712.3  37603.29  34553.90  91.89
713.6  37599.66  35287.84  93.85
714.9  37564.50  35954.88  95.72
716.3  37606.65  36641.69  97.43
717.6  37655.10  37305.94  99.07
718.9  37643.31  37826.38  100.49
720.2  37519.65  38191.88  101.79
721.6  37437.79  38557.05  102.99
722.9  37295.06  38850.37  104.17
724.2  37099.21  39033.80  105.21
725.5  36957.59  39244.10  106.19
726.8  36833.83  39399.13  106.96
728.1  36764.75  39595.81  107.70
729.5  36694.32  39757.02  108.35
730.8  36660.60  39905.45  108.85
732.1  36590.42  40000.50  109.32
733.4  36549.03  40105.21  109.73
734.7  36509.02  40185.49  110.07
736.0  36510.50  40324.12  110.45
737.3  36452.29  40394.56  110.81
738.6  36538.42  40619.33  111.17
739.9  36706.85  40933.18  111.51
741.2  36841.35  41186.60  111.79
742.5  37078.82  41561.71  112.09
743.8  37494.19  42147.88  112.41
745.1  38118.44  42963.53  112.71
746.4  38876.11  43890.37  112.90
747.7  39639.96  44789.40  112.99
749.0  40400.48  45666.02  113.03
750.3  40850.46  46151.79  112.98
751.6  40764.46  46080.04  113.04
752.9  40356.61  45659.24  113.14
754.2  39863.99  45198.93  113.38
755.4  39350.05  44699.75  113.60
756.7  39155.03  44574.51  113.84
758.0  39142.09  44655.02  114.08
759.3  39351.46  44992.01  114.33
760.6  39645.76  45419.73  114.56
761.9  39928.94  45831.41  114.78
763.1  40078.15  46059.50  114.92
764.4  40287.45  46349.78  115.05
765.7  40433.25  46564.92  115.16
767.0  40515.07  46733.68  115.35
768.2  40595.52  46879.84  115.48
769.5  40644.33  46979.23  115.59
770.8  40787.04  47200.64  115.72
772.0  40799.41  47256.03  115.83
773.3  40833.29  47366.48  116.00
774.6  40907.98  47497.67  116.11
775.8  40955.53  47614.51  116.26
777.1  40964.33  47650.40  116.32
778.4  40867.87  47597.32  116.47
779.6  40816.98  47594.92  116.61
780.9  40688.00  47530.67  116.82
782.1  40484.72  47379.47  117.03
783.4  40464.32  47404.59  117.15
784.6  40463.12  47450.93  117.27
785.9  40670.74  47843.91  117.64
787.1  41171.80  48507.65  117.82
788.4  41528.97  48985.92  117.96
789.6  41482.13  48863.18  117.79
790.9  41134.16  48356.26  117.56
792.1  40655.28  47859.79  117.72
793.4  40180.32  47373.86  117.90
794.6  39846.60  47030.92  118.03
795.8  39587.54  46723.89  118.03
797.1  39290.10  46437.78  118.19
798.3  39054.26  46252.25  118.43
799.5  38943.25  46141.56  118.48
800.8  38778.22  46016.76  118.67
802.0  38618.88  45882.52  118.81
803.2  38465.20  45710.76  118.84
804.5  38332.71  45589.82  118.93
805.7  38219.65  45455.65  118.93
806.9  38073.35  45311.84  119.01
808.1  37984.05  45227.52  119.07
809.4  37906.28  45167.79  119.16
810.6  37824.15  45101.12  119.24
811.8  37796.29  45101.62  119.33
813.0  37827.58  45147.36  119.35
814.2  37840.50  45214.02  119.49
815.4  37955.24  45340.52  119.46
816.6  38027.91  45396.30  119.38
817.9  38102.35  45447.61  119.28
819.1  38072.96  45354.70  119.13
820.3  37949.69  45179.99  119.05
821.5  37894.61  45048.61  118.88
822.7  37866.54  44959.79  118.73
823.9  37906.28  44938.85  118.55
825.1  37943.15  44915.34  118.38
826.3  38020.73  44896.56  118.08
827.5  38108.05  44889.89  117.80
828.7  38176.32  44885.60  117.57
829.9  38262.68  44874.52  117.28
831.0  38386.63  44922.25  117.03
832.2  38533.16  44990.80  116.76
833.4  38634.36  45042.41  116.59
834.6  38746.88  45118.75  116.44
835.8  38872.58  45202.50  116.28
837.0  39026.76  45318.27  116.12
838.1  39200.00  45496.47  116.06
839.3  39334.99  45607.55  115.95
840.5  39499.16  45765.19  115.86
841.7  39675.29  45955.67  115.83
842.9  39834.34  46142.84  115.84
844.0  40002.80  46307.37  115.76
845.2  40188.33  46492.08  115.69
846.4  40315.24  46633.30  115.67
847.5  40575.08  46903.49  115.60
848.7  40794.29  47119.59  115.51
849.9  41043.27  47316.79  115.29
851.0  41176.72  47385.45  115.08
852.2  41283.01  47430.21  114.89
853.3  41336.03  47417.19  114.71
854.5  41385.60  47401.04  114.54
855.6  41408.01  47387.76  114.44
856.8  41491.09  47430.84  114.32
857.9  41535.42  47428.76  114.19
859.1  41657.80  47562.27  114.17
860.2  41711.76  47598.21  114.11
861.4  41789.90  47641.64  114.00
862.5  41857.52  47688.64  113.93
863.7  41978.22  47785.95  113.84
864.8  42001.40  47786.90  113.77
865.9  42003.19  47734.06  113.64
867.1  42077.89  47759.03  113.50
868.2  42118.25  47749.77  113.37
869.3  42153.63  47717.67  113.20
870.5  42092.46  47633.27  113.16
871.6  42122.53  47623.72  113.06
872.7  42223.14  47672.64  112.91
873.9  42262.83  47669.06  112.79
875.0  42247.20  47603.98  112.68
876.1  42225.11  47565.51  112.65
877.2  42279.84  47530.22  112.42
878.3  42302.12  47463.44  112.20
879.4  42284.06  47468.43  112.26
880.5  42343.92  47441.64  112.04
881.7  42326.05  47384.78  111.95
882.8  42351.34  47356.66  111.82
883.9  42430.09  47313.85  111.51
885.0  42357.32  47186.91  111.40
886.1  42357.47  47078.77  111.15
887.2  42241.92  46845.67  110.90
888.3  42147.85  46659.09  110.70
889.4  42045.32  46448.09  110.47
890.5  41945.29  46315.72  110.42
891.6  41864.40  46195.20  110.34
892.7  41844.69  46127.17  110.23
893.8  41881.85  46115.46  110.11
894.9  41879.31  46048.68  109.96
896.0  41812.69  45951.75  109.90
897.0  41850.92  45903.99  109.68
898.1  41821.61  45861.68  109.66
899.2  41852.54  45806.47  109.45
900.3  41747.94  45666.70  109.39
901.4  41622.41  45506.55  109.33
902.4  41658.53  45478.10  109.17
903.5  41604.82  45338.10  108.97
904.6  41550.72  45283.79  108.98
905.7  41565.54  45218.04  108.79
906.7  41536.49  45133.55  108.66
907.8  41558.34  45115.96  108.56
908.9  41493.73  44933.72  108.29
909.9  41451.58  44868.45  108.24
911.0  41358.23  44709.12  108.10
912.1  41297.17  44562.39  107.91
913.1  41189.72  44384.25  107.76
914.2  41099.85  44184.00  107.50
915.2  41068.89  44075.88  107.32
916.3  41034.15  43982.15  107.18
917.3  40975.74  43838.12  106.99
918.4  40862.80  43593.09  106.68
919.4  40836.29  43449.40  106.40
920.5  40782.84  43299.92  106.17
921.5  40833.45  43180.20  105.75
922.6  40729.18  42969.09  105.50
923.6  40739.49  42867.99  105.22
924.7  40774.75  42720.50  104.77
925.7  40746.72  42502.42  104.31
926.7  40808.40  42384.42  103.86
927.8  40839.01  42231.72  103.41
928.8  40966.59  42134.08  102.85
929.9  41048.46  42028.23  102.39
930.9  41217.18  42050.65  102.02
931.9  41378.61  42032.12  101.58
932.9  41679.25  42117.41  101.05
934.0  41702.58  41948.65  100.59
935.0  41757.18  41765.04  100.02
936.0  41670.71  41536.47  99.68
937.0  41632.50  41279.62  99.15
938.1  41580.55  41031.08  98.68
939.1  41508.45  40795.41  98.28
940.1  41591.64  40664.95  97.77
941.1  41779.29  40635.16  97.26
942.1  41991.60  40650.20  96.81
943.1  42156.63  40554.41  96.20
944.1  42391.18  40552.56  95.66
945.2  42445.20  40348.98  95.06
946.2  42493.04  40188.75  94.58
947.2  42572.63  40018.00  94.00
948.2  42750.54  39917.73  93.37
949.2  42846.38  39692.52  92.64
950.2  42880.60  39428.98  91.95
951.2  42968.52  39222.40  91.28
952.2  43001.40  39016.03  90.73
953.2  43164.71  38905.91  90.13
954.2  43310.48  38767.88  89.51
955.2  43368.34  38539.39  88.87
956.2  43301.73  38333.88  88.53
957.2  43392.87  38172.32  87.97
958.2  43492.10  38039.96  87.46
959.2  43506.45  37978.65  87.29
960.1  43588.22  37869.50  86.88
961.1  43692.83  37832.30  86.59
962.1  43658.44  37786.25  86.55
963.1  43782.00  37761.98  86.25
964.1  43817.42  37765.91  86.19
965.1  43908.74  37789.53  86.06
966.1  44007.38  37751.53  85.78
967.0  44141.86  37850.33  85.75
968.0  44131.86  37847.11  85.76
969.0  44255.20  37863.73  85.56
970.0  44255.36  37927.91  85.70
971.0  44316.83  37937.03  85.60
971.9  44400.90  37984.81  85.55
972.9  44577.14  37995.88  85.24
973.9  44494.78  37999.00  85.40
974.9  44573.29  38064.60  85.40
975.8  44702.44  38098.78  85.23
976.8  44666.28  38116.82  85.34
977.8  44950.93  38186.52  84.95
978.8  44877.90  38215.45  85.15
979.7  45104.10  38454.61  85.26
981.4  47578.80  38287.51  80.47
985.3  47203.20  38409.42  81.37
989.3  47137.31  38719.70  82.14
993.3  47133.16  39065.40  82.88
997.2  47029.21  39314.26  83.60
1001.2  46955.35  39578.46  84.29
1005.2  46914.32  39908.53  85.07
1009.1  47038.13  40431.53  85.95
1013.1  47236.75  41055.49  86.91
1017.1  47375.30  41665.60  87.95
1021.0  47429.61  42170.25  88.91
1025.0  47461.87  42622.75  89.80
1029.0  47354.18  42962.61  90.73
1032.9  47271.77  43315.13  91.63
1036.9  47308.70  43785.54  92.55
1040.9  47476.08  44366.89  93.45
1044.8  47747.63  45002.60  94.25
1048.8  47970.59  45557.16  94.97
1052.7  48104.60  46019.46  95.67
1056.7  48183.46  46343.57  96.18
1060.7  48250.82  46576.71  96.53
1064.6  48272.17  46745.37  96.84
1068.6  48190.54  46746.35  97.00
1072.5  48116.11  46698.08  97.05
1076.5  48076.67  46625.00  96.98
1080.4  48048.88  46511.71  96.80
1084.4  48150.59  46425.49  96.42
1088.3  48279.53  46298.04  95.90
1092.3  48252.92  46009.12  95.35
1096.2  48221.83  45665.59  94.70
1100.2  48245.69  45380.13  94.06
1104.1  48124.97  44949.39  93.40
1108.1  48059.38  44544.19  92.69
1112.0  47955.87  44071.02  91.90
1116.0  47754.46  43460.37  91.01
1119.9  47569.76  42787.29  89.95
1123.9  47623.80  42157.53  88.52
1127.8  47592.96  41209.60  86.59
1131.8  47556.42  39991.03  84.09
1135.7  47568.82  38592.71  81.13
1139.6  47554.30  37053.23  77.92
1143.6  47510.71  35552.34  74.83
1147.5  47481.98  34281.31  72.20
1151.4  47337.52  33220.87  70.18
1155.4  47322.86  32565.44  68.82
1159.3  47329.81  32153.15  67.93
1163.2  47159.49  31770.77  67.37
1167.2  47113.86  31568.54  67.00
1171.1  47117.13  31433.63  66.71
1175.0  47022.16  31268.09  66.50
1179.0  46962.63  31132.56  66.29
1182.9  47045.30  31073.37  66.05
1186.8  47019.62  30956.10  65.84
1190.7  46784.64  30710.54  65.64
1194.7  46508.35  30460.84  65.50
1198.6  46264.68  30287.57  65.47
1202.5  46100.54  30187.96  65.48
1206.4  45962.62  30138.65  65.57
1210.3  45829.98  30138.20  65.76
1214.2  45707.13  30162.69  65.99
1218.2  45554.16  30173.50  66.24
1222.1  45384.95  30205.33  66.55
1226.0  45257.55  30272.79  66.89
1229.9  45156.00  30343.56  67.20
1233.8  45033.17  30394.71  67.49
1237.7  44950.68  30468.08  67.78
1241.6  44841.64  30509.31  68.04
1245.5  44683.61  30493.98  68.24
1249.4  44538.65  30478.12  68.43
1253.3  44401.40  30455.01  68.59
1257.2  44324.52  30449.26  68.70
1261.1  44209.48  30407.08  68.78
1265.0  44086.55  30321.93  68.78
1268.9  43910.05  30164.67  68.70
1272.8  43969.80  30151.10  68.57
1276.7  44155.69  30187.52  68.37
1280.6  44249.88  30114.03  68.05
1284.5  44188.89  29896.99  67.66
1288.4  44167.03  29683.01  67.21
1292.3  44060.50  29363.58  66.64
1296.2  43934.23  28991.85  65.99
1300.1  43787.98  28562.66  65.23
1303.9  43564.57  28033.42  64.35
1307.8  43339.22  27463.50  63.37
1311.7  43109.06  26859.17  62.31
1315.6  42877.90  26237.26  61.19
1319.5  42633.84  25569.62  59.97
1323.3  42417.44  24893.60  58.69
1327.2  42218.70  24223.11  57.38
1331.1  42002.86  23535.21  56.03
1335.0  41739.72  22834.25  54.71
1338.8  41543.11  22208.63  53.46
1342.7  41389.31  21628.69  52.26
1346.5  41042.00  20969.94  51.09
1350.4  40741.74  20369.23  50.00
1354.3  40332.24  19729.10  48.92
1358.1  39895.31  19099.20  47.87
1362.0  39644.33  18574.92  46.85
1365.8  39567.12  18120.27  45.80
1369.7  39683.68  17704.90  44.62
1373.5  39615.26  17076.60  43.11
1377.4  39354.79  16198.59  41.16
1381.2  39167.92  15199.80  38.81
1385.1  39160.09  14225.90  36.33
1389.0  39060.88  13226.76  33.86
1392.8  38834.72  12197.21  31.41
1396.6  38680.88  11264.26  29.12
1400.5  38476.57  10431.08  27.11
1404.3  38299.58  9749.74  25.46
1408.2  38263.03  9230.80  24.12
1412.0  38218.70  8824.84  23.09
1415.8  38249.29  8539.10  22.32
1419.6  38208.11  8301.07  21.73
1423.5  38172.20  8120.83  21.27
1427.3  38125.77  7984.27  20.94
1431.1  38099.78  7887.95  20.70
1434.9  38010.73  7801.89  20.53
1438.8  37949.80  7747.54  20.42
1442.6  37913.52  7717.18  20.35
1446.4  37795.09  7674.11  20.30
1450.2  37700.99  7649.28  20.29
1454.0  37583.52  7634.96  20.31
1457.8  37547.69  7653.19  20.38
1461.6  37527.24  7689.43  20.49
1465.4  37404.28  7726.62  20.66
1469.2  37216.73  7780.50  20.91
1473.0  37080.95  7860.21  21.20
1476.8  37019.78  7985.91  21.57
1480.7  36949.43  8129.19  22.00
1484.4  36826.56  8276.40  22.47
1488.2  36723.96  8462.60  23.04
1492.0  36584.11  8644.23  23.63
1495.8  36452.33  8820.18  24.20
1499.6  36350.05  8969.38  24.68
1503.4  36216.75  9071.92  25.05
1507.2  36087.28  9139.02  25.32
1510.9  35929.91  9149.42  25.46
1514.7  35749.31  9140.69  25.57
1518.5  35615.65  9216.67  25.88
1522.3  35466.30  9404.93  26.52
1526.0  35355.47  9638.29  27.26
1529.8  35294.61  9848.14  27.90
1533.6  35159.29  10002.15  28.45
1537.3  35020.99  10132.22  28.93
1541.1  34889.16  10271.22  29.44
1544.8  34754.40  10403.20  29.93
1548.6  34607.98  10515.90  30.39
1552.4  34514.76  10638.02  30.82
1556.1  34455.77  10742.17  31.18
1559.9  34373.05  10836.04  31.52
1563.6  34243.93  10939.23  31.95
1567.3  34122.03  11060.12  32.41
1571.1  33904.82  11147.18  32.88
1574.8  33749.79  11252.32  33.34
1578.6  33637.37  11350.16  33.74
1582.3  33496.17  11409.86  34.06
1586.0  33359.51  11464.06  34.37
1589.8  33217.24  11510.30  34.65
1593.5  33051.52  11548.82  34.94
1597.2  32917.71  11593.63  35.22
1600.9  32767.31  11636.13  35.51
1604.7  32613.52  11675.37  35.80
1608.4  32493.03  11721.23  36.07
1612.1  32320.35  11747.46  36.35
1615.8  32161.00  11773.36  36.61
1619.5  32072.28  11827.48  36.88
1623.2  31915.49  11858.37  37.16
1626.9  31725.78  11859.72  37.38
1630.6  31537.44  11862.03  37.61
1634.3  31397.73  11878.02  37.83
1638.0  31241.74  11869.35  37.99
1641.7  31050.65  11841.86  38.14
1645.4  30870.63  11804.02  38.24
1649.1  30683.95  11752.62  38.30
1652.8  30504.58  11705.03  38.37
1656.4  30322.32  11646.03  38.41
1660.1  30158.02  11594.27  38.45
1663.8  29966.42  11533.82  38.49
1667.5  29809.99  11485.39  38.53
1671.1  29676.54  11433.16  38.53
1674.8  29472.79  11344.60  38.49
1678.5  29413.48  11300.17  38.42
1682.1  29419.35  11268.79  38.30
1685.8  29417.21  11231.65  38.18
1689.5  29310.65  11144.70  38.02
1693.1  29167.59  11036.30  37.84
1696.8  29020.13  10922.63  37.64
1700.4  28874.60  10796.81  37.39
1704.0  28754.23  10675.50  37.13
1707.7  28493.62  10494.46  36.83
1711.3  28200.13  10296.38  36.51
1715.0  27991.44  10137.04  36.21
1718.6  27822.35  9992.12  35.91
1722.2  27677.55  9852.73  35.60
1725.9  27527.50  9718.76  35.31
1729.5  27386.37  9604.78  35.07
1733.1  27262.24  9521.63  34.93
1736.7  27144.69  9449.66  34.81
1740.3  26982.07  9349.29  34.65
1744.0  26899.89  9258.15  34.42
1747.5  26760.07  9131.23  34.12
1751.2  26551.35  8969.10  33.78
1754.8  26397.18  8826.89  33.44
1758.4  26262.14  8704.78  33.15
1762.0  26085.49  8576.51  32.88
1765.5  25956.49  8479.36  32.67
1769.1  25915.20  8428.00  32.52
1772.7  25841.75  8362.94  32.36
1776.3  25724.16  8288.90  32.22
1779.9  25608.69  8215.83  32.08
1783.5  25553.92  8166.64  31.96
1787.0  25434.82  8105.09  31.87
1790.6  25293.30  8041.90  31.79
1794.2  25193.03  7997.31  31.74
1797.8  25095.48  7964.86  31.74
1801.3  25012.46  7938.57  31.74
1804.9  24871.88  7893.38  31.74
1808.4  24792.34  7873.55  31.76
1812.0  24660.35  7825.54  31.73
1815.5  24519.60  7774.73  31.71
1819.1  24324.68  7708.45  31.69
1822.6  24164.48  7651.75  31.67
1826.2  24042.90  7603.26  31.62
1829.7  23859.90  7535.02  31.58
1833.2  23612.46  7437.61  31.50
1836.8  23400.20  7337.18  31.36
1840.3  23257.80  7268.61  31.25
1843.8  23131.92  7221.29  31.22
1847.3  23013.03  7188.06  31.23
1850.8  22865.47  7129.92  31.18
1854.3  22692.74  7015.94  30.92
1857.8  22594.00  6858.80  30.36
1861.3  22615.25  6629.29  29.31
1864.8  22605.64  6301.28  27.87
1868.3  22468.36  5888.25  26.21
1871.8  22341.12  5455.36  24.42
1875.3  22323.21  5084.48  22.78
1878.8  22320.32  4751.25  21.29
1882.3  22237.89  4423.03  19.89
1885.8  22045.10  4109.20  18.64
1889.3  21861.76  3825.74  17.50
1892.7  21710.01  3606.53  16.61
1896.2  21503.16  3489.00  16.23
1899.7  21232.37  3433.15  16.17
1901.7  20074.51  2333.70  11.63
1904.5  20223.67  2274.70  11.25
1907.2  20168.50  2249.92  11.16
1910.0  20030.00  2181.84  10.89
1912.7  20048.69  2135.11  10.65
1915.5  19979.54  2125.03  10.64
1918.2  19877.64  2096.91  10.55
1921.0  19705.09  2065.30  10.48
1923.7  19733.20  2063.26  10.46
1926.5  19715.86  2050.61  10.40
1929.2  19701.76  2038.37  10.35
1932.0  19674.16  2040.31  10.37
1934.7  19635.47  2050.05  10.44
1937.4  19518.79  2055.37  10.53
1940.2  19475.71  2068.35  10.62
1942.9  19573.26  2084.81  10.65
1945.6  19572.62  2094.87  10.70
1948.3  19494.00  2113.86  10.84
1951.1  19465.67  2124.06  10.91
1953.8  19476.00  2144.00  11.01
1956.5  19368.67  2156.40  11.13
1959.2  19423.04  2190.67  11.28
1961.9  19438.54  2223.08  11.44
1964.6  19331.55  2238.19  11.58
1967.3  19375.30  2270.49  11.72
1970.0  19228.16  2270.32  11.81
1972.8  19159.08  2282.73  11.91
1975.5  19219.42  2321.82  12.08
1978.2  19120.16  2335.03  12.21
1980.9  19002.89  2354.35  12.39
1983.5  18950.70  2384.83  12.58
1986.2  18944.10  2404.63  12.69
1988.9  18909.18  2441.49  12.91
1991.6  18787.78  2452.51  13.05
1994.3  18678.85  2460.86  13.17
1997.0  18669.58  2505.62  13.42
1999.7  18631.37  2533.77  13.60
2002.3  18617.79  2554.48  13.72
2005.0  18540.12  2569.82  13.86
2007.7  18469.93  2602.93  14.09
2010.4  18400.48  2625.65  14.27
2013.0  18316.11  2644.91  14.44
2015.7  18226.45  2662.64  14.61
2018.4  18129.14  2666.47  14.71
2021.0  18062.50  2697.34  14.93
2023.7  17946.51  2708.89  15.09
2026.4  17902.73  2719.02  15.19
2029.0  17806.29  2746.06  15.42
2031.7  17677.40  2750.95  15.56
2034.3  17722.47  2765.03  15.60
2037.0  17610.64  2779.35  15.78
2039.6  17527.07  2791.77  15.93
2042.3  17481.88  2805.53  16.05
2044.9  17393.81  2824.64  16.24
2047.5  17348.93  2840.53  16.37
2050.2  17253.60  2846.67  16.50
2052.8  17214.40  2864.40  16.64
2055.4  17090.17  2858.64  16.73
2058.1  16973.60  2858.80  16.84
2060.7  16918.14  2890.96  17.09
2063.3  16842.61  2904.64  17.25
2065.9  16794.67  2903.33  17.29
2068.6  16710.92  2913.57  17.44
2071.2  16664.67  2936.94  17.62
2073.8  16591.32  2929.86  17.66
2076.4  16536.88  2942.32  17.79
2079.0  16525.61  2973.92  18.00
2081.6  16519.89  2987.76  18.09
2084.2  16487.00  2999.43  18.19
2086.8  16353.42  2998.98  18.34
2089.4  16268.28  2998.36  18.43
2092.1  16209.50  3018.45  18.62
2094.7  16113.80  3034.99  18.83
2097.2  16087.67  3031.67  18.84
2099.8  16089.36  3059.22  19.01
2102.4  15953.94  3067.01  19.22
2105.0  15826.05  3060.90  19.34
2107.6  15774.07  3078.10  19.51
2110.2  15742.83  3083.21  19.58
2112.8  15734.02  3094.31  19.67
2115.3  15735.22  3126.26  19.87
2117.9  15738.64  3136.70  19.93
2120.5  15682.70  3140.43  20.02
2123.1  15604.88  3157.05  20.23
2125.6  15567.02  3170.41  20.37
2128.2  15487.92  3157.87  20.39
2130.8  15394.28  3164.85  20.56
2133.3  15347.20  3168.98  20.65
2135.9  15264.31  3155.43  20.67
2138.4  15119.35  3151.95  20.85
2141.0  15032.51  3147.94  20.94
2143.6  14998.41  3149.59  21.00
2146.1  14847.40  3130.30  21.08
2148.7  14686.27  3111.89  21.19
2151.2  14704.80  3128.89  21.28
2153.8  14713.72  3150.35  21.41
2156.3  14589.47  3136.44  21.50
2158.8  14533.35  3127.58  21.52
2161.4  14517.59  3136.04  21.60
2163.9  14426.20  3120.32  21.63
2166.4  14354.62  3104.50  21.63
2169.0  14310.27  3115.34  21.77
2171.5  14227.48  3096.62  21.77
2174.0  14143.15  3074.17  21.74
2176.5  14124.76  3078.70  21.80
2179.1  14082.55  3068.89  21.79
2181.6  13967.33  3048.76  21.83
2184.1  13937.00  3052.28  21.90
2186.6  13993.83  3058.83  21.86
2189.1  13896.09  3037.73  21.86
2191.6  13840.87  3032.56  21.91
2194.1  13877.92  3030.47  21.84
2196.6  13844.81  3032.09  21.90
2199.2  13897.52  3066.25  22.06
2201.7  13871.80  3038.45  21.90
2204.1  13802.39  3015.08  21.84
2206.6  13786.08  3030.00  21.98
2209.1  13743.34  3036.83  22.10
2211.6  13738.26  3030.11  22.06
2214.1  13693.60  3012.19  22.00
2216.6  13643.61  3007.02  22.04
2219.1  13655.01  2990.55  21.90
2221.6  13597.41  2974.27  21.87
2224.0  13563.60  2938.78  21.67
2226.5  13534.39  2920.97  21.58
2229.0  13551.73  2938.75  21.69
2231.5  13416.49  2891.65  21.55
2233.9  13376.81  2860.60  21.38
2236.4  13409.64  2851.25  21.26
2238.9  13341.63  2802.92  21.01
2241.3  13300.17  2780.26  20.90
2243.8  13261.31  2777.67  20.95
2246.2  13153.53  2736.93  20.81
2248.7  13089.53  2707.38  20.68
2251.2  13067.33  2687.77  20.57
2253.6  13017.60  2661.12  20.44
2256.1  12979.20  2624.00  20.22
2258.5  12980.99  2607.21  20.08
2260.9  12912.45  2586.07  20.03
2263.4  12850.74  2540.98  19.77
2265.8  12840.17  2519.57  19.62
2268.3  12768.77  2479.61  19.42
2270.7  12812.36  2456.54  19.17
2273.1  12778.22  2441.62  19.11
2275.6  12710.40  2403.84  18.91
2278.0  12729.12  2384.15  18.73
2280.4  12680.26  2382.12  18.79
2282.8  12544.20  2332.03  18.59
2285.3  12570.98  2301.89  18.31
2287.7  12679.54  2311.76  18.23
2290.1  12579.51  2256.04  17.93
2292.5  12520.09  2215.65  17.70
2294.9  12538.64  2212.94  17.65
2297.3  12458.25  2171.30  17.43
2299.7  12334.59  2112.36  17.13
2302.1  12311.40  2099.04  17.05
2304.5  12214.72  2054.08  16.82
2306.9  12089.28  1991.36  16.47
2309.3  11994.02  1976.15  16.48
2311.7  11939.85  1972.97  16.52
2314.1  11791.37  1937.66  16.43
2316.5  11721.50  1948.99  16.63
2318.9  11765.88  1964.26  16.69
2321.3  11730.50  1939.90  16.54
2323.7  11744.39  1966.05  16.74
2326.1  11719.24  1953.21  16.67
2328.4  11761.55  1929.75  16.41
2330.8  11807.83  1929.12  16.34
2333.2  11712.54  1893.06  16.16
2335.6  11662.03  1864.10  15.98
2337.9  11681.16  1872.43  16.03
2340.3  11629.38  1841.67  15.84
2342.7  11548.22  1801.28  15.60
2345.0  11508.47  1802.00  15.66
2347.4  11492.00  1772.25  15.42
2349.7  11315.65  1715.79  15.16
2352.1  11286.89  1705.33  15.11
2354.4  11296.02  1706.44  15.11
2356.8  11214.70  1699.33  15.15
2359.2  11154.00  1695.78  15.20
2361.5  11109.05  1660.98  14.95
2363.8  11141.66  1648.34  14.79
2366.2  11165.73  1668.24  14.94
2368.5  11089.40  1650.95  14.89
2370.9  11067.03  1611.89  14.56
2373.2  11030.32  1594.82  14.46
2375.5  10914.30  1576.21  14.44
2377.9  10876.18  1557.43  14.32
2380.2  10876.88  1554.71  14.29
2382.5  10821.23  1525.54  14.10
2384.8  10769.44  1490.99  13.84
2387.2  10736.28  1503.39  14.00
2389.5  10704.02  1506.21  14.07
2391.8  10661.73  1467.20  13.76
2394.1  10613.91  1450.70  13.67
2396.4  10610.47  1440.21  13.57
2398.7  10654.34  1435.52  13.47
2401.0  10513.07  1443.94  13.73
2403.3  10428.12  1407.68  13.50
2405.6  10456.51  1361.21  13.02
2407.9  10375.71  1364.39  13.15
2410.2  10317.44  1350.26  13.09
2412.5  10224.31  1331.40  13.02
2414.8  10187.84  1326.55  13.02
2417.1  10204.62  1312.78  12.86
2419.4  10195.97  1295.55  12.71
2421.7  10103.31  1287.88  12.75
2424.0  10048.90  1280.33  12.74
2426.2  10074.05  1244.77  12.36
2428.5  10032.46  1249.32  12.45
2430.8  10006.20  1255.32  12.55
2433.1  9945.94  1207.75  12.14
2435.4  9886.37  1202.93  12.17
2437.6  9830.42  1214.12  12.35
2439.9  9708.34  1162.31  11.97
2442.2  9709.99  1156.63  11.91
2444.4  9752.18  1179.30  12.09
2446.7  9688.56  1111.55  11.47
2448.9  9658.24  1109.33  11.49
2451.2  9631.36  1116.51  11.59
2453.4  9564.32  1108.91  11.59
2455.7  9566.46  1119.03  11.70
2457.9  9468.86  1066.34  11.26
2460.2  9395.46  1058.33  11.26
2462.4  9422.40  1089.92  11.57
2464.7  9348.95  1061.91  11.36
2466.9  9251.22  1025.06  11.08
2469.2  9249.34  1019.78  11.03
2471.4  9151.61  1000.07  10.93
2473.6  9078.42  993.09  10.94
2475.9  9042.40  979.87  10.84
2478.1  8956.32  965.54  10.78
2480.3  8952.70  928.22  10.37
2482.5  8971.16  910.22  10.15
2484.8  8832.66  912.64  10.33
2487.0  8762.09  925.83  10.57
2489.2  8850.00  967.42  10.93
2491.4  8753.22  935.01  10.68
2493.6  8669.20  893.57  10.31
2495.8  8662.66  913.25  10.54
2498.0  8674.13  894.44  10.31
2500.2  8694.60  870.59  10.01
2502.4  8942.16  923.52  10.33
2504.6  9089.52  932.74  10.26
2506.8  9176.65  889.74  9.70
