/*** Spectra Vista SIG Data ***/
name= BT.sig
comm= Averaged Ref/Tar of files: BT1,BT2,BT3
data=
346.4  509.60  93.85  18.42
347.9  549.06  94.96  17.30
349.5  608.40  95.26  15.66
351.1  655.20  100.67  15.37
352.6  708.40  96.56  13.63
354.2  752.68  99.05  13.16
355.7  818.30  107.31  13.11
357.3  873.81  107.26  12.28
358.8  891.23  114.64  12.86
360.4  967.31  113.97  11.78
361.9  1009.93  115.62  11.45
363.5  1059.53  119.57  11.29
365.1  1102.67  116.04  10.52
366.6  1156.59  124.75  10.79
368.2  1218.77  117.74  9.66
369.7  1306.00  126.25  9.67
371.3  1379.56  125.99  9.13
372.8  1457.48  128.37  8.81
374.4  1528.58  132.17  8.65
375.9  1575.56  134.61  8.54
377.4  1632.76  142.24  8.71
379.0  1683.54  138.33  8.22
380.5  1741.87  140.34  8.06
382.1  1805.51  141.84  7.86
383.6  1862.60  138.35  7.43
385.2  1949.75  143.73  7.37
386.7  2036.04  144.40  7.09
388.3  2135.96  152.54  7.14
389.8  2212.47  162.50  7.34
391.3  2314.34  166.36  7.19
392.9  2392.65  171.84  7.18
394.4  2474.90  189.13  7.64
395.9  2552.82  183.80  7.20
397.5  2664.75  196.38  7.37
399.0  2774.82  200.23  7.22
400.6  2852.64  200.74  7.04
402.1  2910.24  201.24  6.92
403.6  2965.71  200.75  6.77
405.1  3036.77  202.61  6.67
406.7  3133.76  202.79  6.47
408.2  3234.33  210.87  6.52
409.7  3330.88  220.12  6.61
411.3  3437.91  225.22  6.55
412.8  3528.93  230.68  6.54
414.3  3634.54  234.96  6.46
415.8  3740.00  249.33  6.67
417.4  3868.37  254.69  6.58
418.9  3954.39  260.09  6.58
420.4  4037.85  263.21  6.52
421.9  4106.74  264.91  6.45
423.5  4196.00  267.12  6.37
425.0  4263.51  273.60  6.42
426.5  4364.50  272.05  6.23
428.0  4488.82  279.42  6.22
429.5  4615.58  280.19  6.07
431.1  4756.23  290.77  6.11
432.6  4917.76  296.07  6.02
434.1  5064.68  305.18  6.03
435.6  5199.35  314.24  6.04
437.1  5333.25  322.40  6.05
438.6  5454.84  332.21  6.09
440.1  5584.70  343.37  6.15
441.6  5717.14  351.64  6.15
443.1  5852.25  360.72  6.16
444.7  5982.11  368.80  6.17
446.2  6104.50  377.78  6.19
447.7  6213.60  385.47  6.20
449.2  6315.84  399.46  6.32
450.7  6414.72  406.02  6.33
452.2  6543.45  415.53  6.35
453.7  6682.65  420.68  6.30
455.2  6842.54  431.76  6.31
456.7  7029.44  444.93  6.33
458.2  7231.16  464.83  6.43
459.7  7428.75  480.90  6.47
461.2  7633.63  498.20  6.53
462.7  7815.14  514.33  6.58
464.2  8000.76  532.16  6.65
465.7  8191.53  542.47  6.62
467.2  8352.58  556.71  6.67
468.7  8552.00  568.53  6.65
470.2  8711.17  576.01  6.61
471.7  8854.00  589.95  6.66
473.2  9050.37  607.99  6.72
474.6  9252.88  623.10  6.73
476.1  9378.88  625.82  6.67
477.6  9464.51  624.05  6.59
479.1  9567.20  627.23  6.56
480.6  9658.16  626.74  6.49
482.1  9797.74  637.56  6.51
483.6  9963.22  650.59  6.53
485.1  10140.49  666.53  6.57
486.6  10356.19  697.66  6.74
488.0  10562.50  724.97  6.86
489.5  10784.97  758.83  7.04
491.0  10998.86  794.86  7.23
492.5  11224.98  841.10  7.49
494.0  11462.99  887.04  7.74
495.4  11663.85  939.62  8.06
496.9  11870.36  992.65  8.36
498.4  12074.30  1053.41  8.72
499.9  12278.41  1111.80  9.05
501.4  12476.75  1173.11  9.40
502.8  12664.51  1245.95  9.84
504.3  12846.60  1310.16  10.20
505.8  13033.73  1382.81  10.61
507.2  13172.68  1453.86  11.04
508.7  13289.99  1518.36  11.42
510.2  13412.81  1583.06  11.80
511.6  13494.72  1651.51  12.24
513.1  13630.43  1726.63  12.67
514.6  13795.53  1802.22  13.06
516.0  13946.28  1874.48  13.44
517.5  14135.83  1956.98  13.84
519.0  14365.19  2044.35  14.23
520.5  14579.60  2130.03  14.61
521.9  14828.55  2219.66  14.97
523.4  15093.49  2314.87  15.34
524.8  15349.14  2407.93  15.69
526.3  15633.70  2508.89  16.05
527.8  15915.89  2602.22  16.35
529.2  16178.21  2694.17  16.65
530.7  16455.24  2786.59  16.93
532.1  16698.15  2878.12  17.24
533.6  16994.07  2970.32  17.48
535.0  17295.55  3061.91  17.70
536.5  17581.25  3152.10  17.93
538.0  17895.84  3238.89  18.10
539.4  18160.64  3326.22  18.32
540.9  18488.86  3436.50  18.59
542.3  18738.28  3539.54  18.89
543.8  18940.29  3632.04  19.18
545.2  19020.35  3676.29  19.33
546.6  19057.19  3699.77  19.41
548.1  19121.11  3734.53  19.53
549.5  19166.91  3761.98  19.63
551.0  19217.70  3790.33  19.72
552.4  19311.21  3825.06  19.81
553.9  19371.38  3852.32  19.89
555.3  19461.20  3886.97  19.97
556.8  19596.88  3933.96  20.07
558.2  19743.75  3979.80  20.16
559.6  19902.71  4030.78  20.25
561.1  20117.50  4096.08  20.36
562.5  20332.52  4166.29  20.49
564.0  20611.34  4249.49  20.62
565.4  20865.50  4325.42  20.73
566.8  21177.73  4415.88  20.85
568.3  21463.05  4496.30  20.95
569.7  21776.78  4582.07  21.04
571.1  22080.65  4658.95  21.10
572.6  22373.82  4737.10  21.17
574.0  22675.95  4810.74  21.22
575.4  22958.44  4885.43  21.28
576.9  23231.09  4950.56  21.31
578.3  23477.03  5014.06  21.36
579.7  23721.74  5072.31  21.38
581.1  23920.49  5123.70  21.42
582.6  24132.47  5177.06  21.45
584.0  24305.80  5233.01  21.53
585.4  24549.94  5308.69  21.62
586.8  24845.17  5409.23  21.77
588.3  25201.80  5522.40  21.91
589.7  25517.70  5619.43  22.02
591.1  25735.55  5690.91  22.11
592.5  25883.00  5719.90  22.10
594.0  25998.42  5745.36  22.10
595.4  26057.54  5764.79  22.12
596.8  26115.38  5781.78  22.14
598.2  26174.55  5793.78  22.14
599.6  26202.06  5817.80  22.20
601.0  26298.70  5856.50  22.27
602.4  26372.18  5893.40  22.35
603.9  26501.77  5936.84  22.40
605.3  26625.41  5980.66  22.46
606.7  26749.80  6020.64  22.51
608.1  26941.18  6067.86  22.52
609.5  27151.69  6122.53  22.55
610.9  27387.74  6187.79  22.59
612.3  27589.20  6240.27  22.62
613.7  27871.80  6308.31  22.63
615.1  28061.64  6343.05  22.60
616.5  28235.16  6381.91  22.60
617.9  28534.12  6456.37  22.63
619.3  28808.15  6537.49  22.69
620.7  29149.14  6640.88  22.78
622.1  29527.66  6775.91  22.95
623.5  29951.83  6926.09  23.12
624.9  30436.35  7070.95  23.23
626.3  30757.12  7129.95  23.18
627.7  30461.43  7035.75  23.10
629.1  30188.34  6953.24  23.03
630.5  30083.03  6911.04  22.97
631.9  30076.12  6866.61  22.83
633.3  30078.24  6801.04  22.61
634.7  30183.54  6779.44  22.46
636.1  30268.81  6705.62  22.15
637.5  30374.19  6604.39  21.74
638.9  30520.15  6506.73  21.32
640.2  30643.60  6413.01  20.93
641.6  30733.56  6329.54  20.59
643.0  30777.50  6269.46  20.37
644.4  30869.16  6224.45  20.16
645.8  30855.38  6194.49  20.08
647.2  31023.20  6234.61  20.10
648.5  31185.15  6289.96  20.17
649.9  31117.13  6323.30  20.32
651.3  31099.80  6379.76  20.51
652.7  31059.00  6408.66  20.63
654.1  30961.56  6235.61  20.14
655.5  30829.51  6010.17  19.49
656.8  30685.81  5786.82  18.86
658.2  30861.69  5665.16  18.36
659.6  31181.89  5591.14  17.93
660.9  31452.29  5514.78  17.53
662.3  31767.46  5432.47  17.10
663.7  32102.70  5342.96  16.64
665.0  32334.98  5260.40  16.27
666.4  32575.38  5182.88  15.91
667.8  32873.84  5131.20  15.61
669.1  33084.01  5082.78  15.36
670.5  33327.47  5058.05  15.18
671.9  33513.12  5043.97  15.05
673.2  33742.50  5058.24  14.99
674.6  33950.66  5091.74  15.00
676.0  34219.05  5160.53  15.08
677.3  34494.18  5257.05  15.24
678.7  34767.13  5393.53  15.51
680.0  35103.31  5587.43  15.92
681.4  35420.13  5856.86  16.54
682.8  35763.00  6198.62  17.33
684.1  36073.44  6620.64  18.35
685.5  36318.59  7113.32  19.59
686.8  36607.26  7667.65  20.95
688.2  36844.31  8266.59  22.44
689.5  36898.97  8864.45  24.02
690.9  36950.15  9467.59  25.62
692.2  37008.15  10056.52  27.17
693.6  37024.93  10647.04  28.76
694.9  37005.38  11189.85  30.24
696.2  37027.13  11715.17  31.64
697.6  37047.86  12194.11  32.91
698.9  37049.76  12652.29  34.15
700.3  37075.62  13078.73  35.28
701.6  37124.24  13468.54  36.28
703.0  37178.40  13820.26  37.17
704.3  37172.20  14120.43  37.99
705.6  37157.22  14395.65  38.74
707.0  37168.46  14638.98  39.39
708.3  37076.04  14846.73  40.04
709.6  36967.81  15030.29  40.66
711.0  36867.73  15164.79  41.13
712.3  36770.31  15292.96  41.59
713.6  36755.88  15433.82  41.99
714.9  36684.64  15542.07  42.37
716.3  36701.44  15663.27  42.68
717.6  36734.04  15793.27  42.99
718.9  36680.73  15869.64  43.26
720.2  36496.25  15883.97  43.52
721.6  36394.28  15909.19  43.71
722.9  36240.12  15912.87  43.91
724.2  36067.30  15905.41  44.10
725.5  35963.70  15910.59  44.24
726.8  35833.96  15903.54  44.38
728.1  35810.80  15900.24  44.40
729.5  35779.10  15903.17  44.45
730.8  35779.13  15908.53  44.46
732.1  35704.25  15904.09  44.54
733.4  35690.92  15915.83  44.59
734.7  35685.89  15912.78  44.59
736.0  35729.66  15939.19  44.61
737.3  35717.44  15952.28  44.66
738.6  35830.21  16014.69  44.70
739.9  36014.88  16119.46  44.76
741.2  36161.58  16202.73  44.81
742.5  36363.94  16342.08  44.94
743.8  36737.66  16563.09  45.08
745.1  37309.08  16876.97  45.24
746.4  37926.98  17235.10  45.44
747.7  38536.99  17593.03  45.65
749.0  39118.92  17912.12  45.79
750.3  39493.02  18084.12  45.79
751.6  39440.80  18067.87  45.81
752.9  39084.79  17933.56  45.88
754.2  38731.25  17784.02  45.92
755.4  38386.91  17635.65  45.94
756.7  38244.09  17602.89  46.03
758.0  38261.36  17651.12  46.13
759.3  38489.95  17805.76  46.26
760.6  38786.44  18012.25  46.44
761.9  39062.28  18197.47  46.59
763.1  39197.21  18316.45  46.73
764.4  39371.54  18449.82  46.86
765.7  39490.75  18539.30  46.95
767.0  39577.16  18626.10  47.06
768.2  39644.64  18718.34  47.22
769.5  39697.68  18782.58  47.31
770.8  39836.32  18883.04  47.40
772.0  39856.44  18940.70  47.52
773.3  39898.95  19007.68  47.64
774.6  39978.84  19067.13  47.69
775.8  40054.79  19120.56  47.74
777.1  40085.96  19154.97  47.78
778.4  40059.57  19154.44  47.81
779.6  39999.54  19171.06  47.93
780.9  39948.00  19176.00  48.00
782.1  39837.20  19164.10  48.11
783.4  39802.88  19180.37  48.19
784.6  39851.08  19214.92  48.22
785.9  40095.40  19408.73  48.41
787.1  40531.58  19677.35  48.55
788.4  40834.19  19840.09  48.59
789.6  40796.10  19758.26  48.43
790.9  40479.11  19551.59  48.30
792.1  40128.24  19395.07  48.33
793.4  39739.41  19224.31  48.38
794.6  39507.48  19084.92  48.31
795.8  39314.07  18986.82  48.30
797.1  39097.95  18892.92  48.32
798.3  38940.83  18845.15  48.39
799.5  38821.14  18797.92  48.42
800.8  38733.05  18766.30  48.45
802.0  38591.76  18731.48  48.54
803.2  38469.72  18662.78  48.51
804.5  38377.94  18644.16  48.58
805.7  38264.87  18589.28  48.58
806.9  38181.95  18553.71  48.59
808.1  38074.65  18532.53  48.67
809.4  38033.33  18521.47  48.70
810.6  37951.55  18503.33  48.76
811.8  37942.61  18510.70  48.79
813.0  37965.80  18541.19  48.84
814.2  37975.49  18577.17  48.92
815.4  38039.93  18624.90  48.96
816.6  38032.65  18640.48  49.01
817.9  38050.16  18650.38  49.02
819.1  37997.24  18629.65  49.03
820.3  37865.18  18580.93  49.07
821.5  37787.61  18547.34  49.08
822.7  37714.41  18521.75  49.11
823.9  37704.87  18523.62  49.13
825.1  37688.07  18522.45  49.15
826.3  37716.38  18524.31  49.11
827.5  37726.06  18530.76  49.12
828.7  37779.60  18536.70  49.07
829.9  37796.29  18536.91  49.04
831.0  37849.02  18579.12  49.09
832.2  37913.75  18622.51  49.12
833.4  37950.44  18651.56  49.15
834.6  37978.13  18701.25  49.24
835.8  38031.53  18754.47  49.31
837.0  38073.26  18810.65  49.41
838.1  38178.69  18898.73  49.50
839.3  38239.24  18968.97  49.61
840.5  38296.24  19042.29  49.72
841.7  38381.58  19130.18  49.84
842.9  38485.06  19270.09  50.07
844.0  38543.94  19354.62  50.21
845.2  38626.85  19461.16  50.38
846.4  38724.98  19530.11  50.43
847.5  38888.12  19646.46  50.52
848.7  39002.30  19754.87  50.65
849.9  39141.74  19821.73  50.64
851.0  39173.78  19847.74  50.67
852.2  39245.07  19864.22  50.62
853.3  39202.67  19861.42  50.66
854.5  39188.19  19867.32  50.70
855.6  39170.88  19874.08  50.74
856.8  39193.80  19907.46  50.79
857.9  39192.81  19917.54  50.82
859.1  39326.60  19963.17  50.76
860.2  39300.24  19972.91  50.82
861.4  39344.78  20018.57  50.88
862.5  39384.29  20026.86  50.85
863.7  39467.66  20056.55  50.82
864.8  39454.45  20088.32  50.92
865.9  39398.65  20081.46  50.97
867.1  39448.45  20077.79  50.90
868.2  39441.53  20093.65  50.95
869.3  39465.67  20098.29  50.93
870.5  39438.89  20067.05  50.88
871.6  39473.54  20068.44  50.84
872.7  39541.37  20114.26  50.87
873.9  39548.50  20101.52  50.83
875.0  39546.05  20099.80  50.83
876.1  39583.15  20092.23  50.76
877.2  39616.79  20103.42  50.74
878.3  39601.98  20080.30  50.71
879.4  39662.11  20080.53  50.63
880.5  39702.60  20095.01  50.61
881.7  39698.10  20064.81  50.54
882.8  39775.46  20062.61  50.44
883.9  39785.32  20028.99  50.34
885.0  39766.55  19966.67  50.21
886.1  39735.85  19901.63  50.08
887.2  39664.66  19781.15  49.87
888.3  39567.00  19711.56  49.82
889.4  39535.02  19628.94  49.65
890.5  39459.91  19598.48  49.67
891.6  39428.33  19519.88  49.51
892.7  39429.01  19505.20  49.47
893.8  39492.50  19523.06  49.43
894.9  39505.51  19506.55  49.38
896.0  39527.49  19499.13  49.33
897.0  39487.40  19449.80  49.26
898.1  39490.45  19456.70  49.27
899.2  39536.22  19435.92  49.16
900.3  39503.73  19379.71  49.06
901.4  39454.09  19331.40  49.00
902.4  39461.49  19323.85  48.97
903.5  39418.10  19290.08  48.94
904.6  39431.18  19268.13  48.87
905.7  39454.64  19233.50  48.75
906.7  39397.52  19225.04  48.80
907.8  39514.80  19216.33  48.63
908.9  39443.33  19162.91  48.58
909.9  39411.21  19111.07  48.49
911.0  39357.50  19077.55  48.47
912.1  39280.99  19006.47  48.39
913.1  39233.48  18936.67  48.27
914.2  39173.92  18874.16  48.18
915.2  39170.79  18831.82  48.08
916.3  39094.50  18800.20  48.09
917.3  39076.47  18755.63  48.00
918.4  39031.30  18665.02  47.82
919.4  39022.48  18580.77  47.62
920.5  39026.74  18526.51  47.47
921.5  39018.63  18454.15  47.30
922.6  38959.72  18386.94  47.19
923.6  39026.05  18323.55  46.95
924.7  39022.50  18266.40  46.81
925.7  39030.84  18185.43  46.59
926.7  39009.32  18119.51  46.45
927.8  39032.57  18029.01  46.19
928.8  39142.62  17968.16  45.90
929.9  39330.10  17943.30  45.62
930.9  39447.46  17945.27  45.49
931.9  39602.61  17927.66  45.27
932.9  39864.58  17951.28  45.03
934.0  39909.81  17898.09  44.85
935.0  39942.68  17808.86  44.59
936.0  39929.50  17724.86  44.39
937.0  39883.94  17637.91  44.22
938.1  39848.52  17535.26  44.00
939.1  39753.89  17446.21  43.89
940.1  39867.76  17386.10  43.61
941.1  39995.43  17392.45  43.49
942.1  40229.45  17391.52  43.23
943.1  40393.76  17371.64  43.01
944.1  40552.56  17347.34  42.78
945.2  40570.32  17252.37  42.52
946.2  40685.67  17180.15  42.23
947.2  40740.25  17089.68  41.95
948.2  40874.09  17044.01  41.70
949.2  40954.06  16974.64  41.45
950.2  41026.00  16871.24  41.12
951.2  41012.16  16781.86  40.92
952.2  41170.94  16681.45  40.52
953.2  41257.13  16587.64  40.21
954.2  41395.95  16520.19  39.91
955.2  41401.94  16429.68  39.68
956.2  41391.82  16370.95  39.55
957.2  41524.97  16288.56  39.23
958.2  41486.28  16233.57  39.13
959.2  41625.00  16212.66  38.95
960.1  41647.94  16178.08  38.84
961.1  41725.78  16165.76  38.74
962.1  41752.50  16171.38  38.73
963.1  41720.60  16175.02  38.77
964.1  41837.60  16164.75  38.64
965.1  41932.95  16207.93  38.65
966.1  41961.44  16220.63  38.66
967.0  42058.17  16251.43  38.64
968.0  42094.69  16233.65  38.56
969.0  42115.20  16264.00  38.62
970.0  42092.26  16274.79  38.66
971.0  42266.18  16304.95  38.58
971.9  42275.33  16384.25  38.76
972.9  42388.85  16388.39  38.66
973.9  42492.13  16401.19  38.60
974.9  42580.28  16450.37  38.63
975.8  42630.52  16511.05  38.73
976.8  42806.43  16538.62  38.64
977.8  42848.34  16557.41  38.64
978.8  42868.95  16630.02  38.79
979.7  43050.58  16731.30  38.86
980.7  43264.32  16892.17  39.04
981.7  43347.07  16875.07  38.93
982.6  43545.07  17059.56  39.18
983.6  44003.55  17301.27  39.32
984.6  44377.46  17485.32  39.40
985.5  44900.28  17813.43  39.67
986.5  45688.01  17990.64  39.38
987.5  46285.78  18355.44  39.66
988.4  47161.40  18850.33  39.97
989.4  47812.76  19108.46  39.97
990.4  48753.98  19384.81  39.76
991.3  50274.64  19337.27  38.46
992.3  50864.45  20189.27  39.69
993.2  51610.85  20345.15  39.42
994.2  53891.66  20645.82  38.31
995.2  55394.96  20740.47  37.44
996.1  55625.12  21435.03  38.53
997.1  56348.70  20889.19  37.07
998.0  54473.40  21286.88  39.08
999.0  55283.87  20764.57  37.56
1000.0  55127.21  20600.82  37.37
1000.9  55875.58  20723.81  37.09
1001.9  56355.47  21082.62  37.41
1002.8  54776.67  20739.87  37.86
1003.8  57170.04  20715.05  36.23
1004.8  54763.20  21053.41  38.44
961.5  49984.08  16306.86  32.62
965.5  48959.90  16149.38  32.98
969.5  47367.08  15874.95  33.51
973.4  45664.01  15461.75  33.86
977.4  44063.24  15120.90  34.32
981.4  43484.76  15005.08  34.51
985.3  43466.28  15008.87  34.53
989.3  43739.41  15160.90  34.66
993.3  44088.36  15321.95  34.75
997.2  44246.85  15429.89  34.87
1001.2  44240.69  15550.73  35.15
1005.2  44147.66  15704.13  35.57
1009.1  44170.72  15931.46  36.07
1013.1  44298.35  16224.30  36.63
1017.1  44409.64  16508.61  37.17
1021.0  44418.65  16733.16  37.67
1025.0  44431.92  16958.92  38.17
1029.0  44310.95  17118.62  38.63
1032.9  44196.36  17274.53  39.09
1036.9  44214.81  17504.10  39.59
1040.9  44317.48  17772.65  40.10
1044.8  44471.57  18058.30  40.61
1048.8  44586.22  18325.04  41.10
1052.7  44660.98  18547.65  41.53
1056.7  44664.90  18699.29  41.87
1060.7  44652.74  18814.96  42.14
1064.6  44643.90  18910.14  42.36
1068.6  44545.19  18921.54  42.48
1072.5  44448.63  18904.62  42.53
1076.5  44390.31  18874.64  42.52
1080.4  44363.13  18822.42  42.43
1084.4  44428.99  18775.67  42.26
1088.3  44526.89  18705.72  42.01
1092.3  44515.11  18565.03  41.71
1096.2  44485.25  18405.49  41.37
1100.2  44489.30  18273.13  41.07
1104.1  44387.15  18079.11  40.73
1108.1  44344.78  17892.59  40.35
1112.0  44255.25  17670.06  39.93
1116.0  44078.91  17379.92  39.43
1119.9  43920.46  17050.91  38.82
1123.9  43980.05  16731.12  38.04
1127.8  43933.44  16267.52  37.03
1131.8  43891.20  15662.91  35.69
1135.7  43904.71  14969.04  34.09
1139.6  43873.24  14217.51  32.41
1143.6  43814.30  13503.25  30.82
1147.5  43764.96  12912.16  29.50
1151.4  43600.54  12447.93  28.55
1155.4  43567.43  12170.59  27.94
1159.3  43548.37  12003.65  27.56
1163.2  43379.84  11857.71  27.33
1167.2  43333.14  11781.12  27.19
1171.1  43320.14  11728.74  27.07
1175.0  43247.45  11668.57  26.98
1179.0  43203.54  11616.28  26.89
1182.9  43281.26  11588.10  26.77
1186.8  43262.79  11542.32  26.68
1190.7  43059.97  11450.17  26.59
1194.7  42822.73  11354.72  26.52
1198.6  42602.18  11297.06  26.52
1202.5  42456.57  11268.10  26.54
1206.4  42335.53  11262.89  26.60
1210.3  42230.32  11282.35  26.72
1214.2  42126.94  11313.11  26.85
1218.2  41984.08  11339.00  27.01
1222.1  41854.50  11370.80  27.17
1226.0  41760.57  11418.96  27.34
1229.9  41673.90  11469.20  27.52
1233.8  41576.55  11497.03  27.65
1237.7  41528.30  11529.30  27.76
1241.6  41457.25  11561.81  27.89
1245.5  41309.15  11573.45  28.02
1249.4  41175.26  11581.67  28.13
1253.3  41058.30  11589.00  28.23
1257.2  40978.33  11604.25  28.32
1261.1  40873.57  11602.76  28.39
1265.0  40757.89  11579.31  28.41
1268.9  40587.74  11518.08  28.38
1272.8  40626.75  11502.60  28.31
1276.7  40780.33  11515.86  28.24
1280.6  40842.56  11485.08  28.12
1284.5  40748.73  11382.07  27.93
1288.4  40697.88  11277.30  27.71
1292.3  40562.50  11130.17  27.44
1296.2  40411.46  10959.13  27.12
1300.1  40239.63  10760.20  26.74
1303.9  40009.73  10516.50  26.28
1307.8  39785.54  10257.77  25.78
1311.7  39554.21  9982.26  25.24
1315.6  39326.35  9700.19  24.67
1319.5  39086.11  9401.23  24.05
1323.3  38870.69  9096.11  23.40
1327.2  38681.53  8797.12  22.74
1331.1  38474.56  8490.20  22.07
1335.0  38203.08  8180.94  21.41
1338.8  38009.09  7899.82  20.78
1342.7  37876.27  7634.38  20.16
1346.5  37598.34  7339.11  19.52
1350.4  37400.07  7059.30  18.88
1354.3  37094.65  6767.91  18.24
1358.1  36731.71  6498.15  17.69
1362.0  36487.36  6279.97  17.21
1365.8  36370.47  6102.24  16.78
1369.7  36432.94  5942.48  16.31
1373.5  36366.82  5694.45  15.66
1377.4  36166.21  5324.53  14.72
1381.2  35990.96  4902.89  13.62
1385.1  35936.27  4509.75  12.55
1389.0  35813.45  4138.72  11.56
1392.8  35598.92  3771.32  10.59
1396.6  35460.61  3436.80  9.69
1400.5  35253.63  3154.24  8.95
1404.3  35072.57  2939.89  8.38
1408.2  35016.72  2779.65  7.94
1412.0  34945.02  2653.57  7.59
1415.8  34962.39  2562.84  7.33
1419.6  34891.95  2491.66  7.14
1423.5  34842.23  2442.14  7.01
1427.3  34796.45  2402.68  6.90
1431.1  34758.75  2371.50  6.82
1434.9  34669.05  2345.28  6.76
1438.8  34606.94  2331.21  6.74
1442.6  34573.84  2317.23  6.70
1446.4  34441.31  2301.16  6.68
1450.2  34332.12  2298.76  6.70
1454.0  34220.52  2294.44  6.70
1457.8  34188.19  2296.49  6.72
1461.6  34155.00  2309.64  6.76
1465.4  34045.70  2317.99  6.81
1469.2  33870.20  2332.64  6.89
1473.0  33726.92  2357.45  6.99
1476.8  33664.28  2394.18  7.11
1480.7  33601.58  2440.81  7.26
1484.4  33488.64  2489.00  7.43
1488.2  33386.04  2547.52  7.63
1492.0  33257.25  2612.83  7.86
1495.8  33142.20  2670.09  8.06
1499.6  33034.11  2716.57  8.22
1503.4  32933.47  2752.46  8.36
1507.2  32852.74  2772.67  8.44
1510.9  32722.34  2786.61  8.52
1514.7  32573.11  2806.31  8.62
1518.5  32453.90  2847.62  8.77
1522.3  32317.90  2893.34  8.95
1526.0  32200.64  2949.27  9.16
1529.8  32127.61  3013.70  9.38
1533.6  32011.66  3064.78  9.57
1537.3  31894.88  3118.90  9.78
1541.1  31782.08  3175.16  9.99
1544.8  31651.20  3226.40  10.19
1548.6  31528.46  3272.65  10.38
1552.4  31450.00  3316.12  10.54
1556.1  31366.15  3349.90  10.68
1559.9  31270.43  3381.92  10.82
1563.6  31150.17  3425.03  11.00
1567.3  31046.10  3475.86  11.20
1571.1  30855.35  3513.54  11.39
1574.8  30723.08  3559.02  11.58
1578.6  30633.26  3598.72  11.75
1582.3  30519.48  3629.69  11.89
1586.0  30400.45  3654.70  12.02
1589.8  30269.89  3669.95  12.12
1593.5  30123.48  3689.47  12.25
1597.2  29998.09  3713.55  12.38
1600.9  29883.71  3730.26  12.48
1604.7  29753.95  3749.48  12.60
1608.4  29639.51  3775.81  12.74
1612.1  29489.62  3799.15  12.88
1615.8  29365.23  3811.90  12.98
1619.5  29298.37  3832.70  13.08
1623.2  29161.12  3851.94  13.21
1626.9  29003.45  3862.28  13.32
1630.6  28846.40  3874.42  13.43
1634.3  28721.00  3883.31  13.52
1638.0  28599.28  3876.08  13.55
1641.7  28456.49  3867.22  13.59
1645.4  28299.47  3857.53  13.63
1649.1  28138.66  3838.97  13.64
1652.8  28008.70  3822.74  13.65
1656.4  27859.80  3801.21  13.64
1660.1  27720.43  3782.35  13.64
1663.8  27551.22  3760.91  13.65
1667.5  27406.07  3741.77  13.65
1671.1  27282.14  3725.14  13.65
1674.8  27100.13  3697.03  13.64
1678.5  27060.12  3679.22  13.60
1682.1  27085.37  3666.01  13.54
1685.8  27087.74  3653.42  13.49
1689.5  26985.46  3627.21  13.44
1693.1  26859.21  3588.97  13.36
1696.8  26718.75  3550.63  13.29
1700.4  26575.97  3511.86  13.21
1704.0  26457.91  3467.60  13.11
1707.7  26210.69  3403.70  12.99
1711.3  25940.59  3332.45  12.85
1715.0  25755.85  3275.67  12.72
1718.6  25603.66  3225.82  12.60
1722.2  25471.82  3180.17  12.49
1725.9  25346.15  3138.51  12.38
1729.5  25225.17  3097.15  12.28
1733.1  25122.33  3069.12  12.22
1736.7  25028.77  3041.93  12.15
1740.3  24869.68  2999.34  12.06
1744.0  24796.20  2966.25  11.96
1747.5  24670.34  2920.21  11.84
1751.2  24460.97  2861.23  11.70
1754.8  24300.77  2813.51  11.58
1758.4  24168.99  2770.21  11.46
1762.0  24004.67  2725.85  11.36
1765.5  23878.06  2693.20  11.28
1769.1  23824.80  2673.60  11.22
1772.7  23745.17  2652.61  11.17
1776.3  23631.64  2629.26  11.13
1779.9  23517.13  2603.21  11.07
1783.5  23453.36  2589.12  11.04
1787.0  23338.16  2566.47  11.00
1790.6  23194.11  2541.13  10.96
1794.2  23099.94  2528.09  10.94
1797.8  23019.59  2516.39  10.93
1801.3  22943.45  2506.87  10.93
1804.9  22821.75  2487.63  10.90
1808.4  22758.56  2479.50  10.89
1812.0  22651.25  2464.32  10.88
1815.5  22537.46  2441.77  10.83
1819.1  22377.91  2417.59  10.80
1822.6  22230.86  2400.19  10.80
1826.2  22108.08  2385.01  10.79
1829.7  21962.63  2360.57  10.75
1833.2  21769.52  2328.63  10.70
1836.8  21568.82  2294.26  10.64
1840.3  21408.35  2274.32  10.62
1843.8  21283.15  2279.81  10.71
1847.3  21175.36  2297.39  10.85
1850.8  21026.88  2304.96  10.96
1854.3  20829.70  2297.75  11.03
1857.8  20716.80  2268.93  10.95
1861.3  20743.52  2186.66  10.54
1864.8  20771.48  2041.67  9.83
1868.3  20668.83  1868.08  9.04
1871.8  20505.60  1694.72  8.26
1875.3  20412.67  1577.94  7.73
1878.8  20386.82  1490.08  7.31
1882.3  20318.80  1394.27  6.86
1885.8  20165.84  1306.38  6.48
1889.3  19976.70  1237.25  6.19
1892.7  19815.25  1189.39  6.00
1896.2  19650.94  1160.86  5.91
1899.7  19441.16  1168.65  6.01
1903.1  19313.45  1203.05  6.23
1906.6  19304.54  1267.71  6.57
1910.0  19451.18  1375.97  7.07
1913.5  19794.95  1531.26  7.74
1917.0  20308.75  1723.17  8.48
1920.4  20662.58  1956.86  9.47
1923.8  20806.27  2040.89  9.81
1871.2  18887.00  1079.80  5.72
1873.9  18953.16  1063.10  5.61
1876.7  18991.47  1015.15  5.35
1879.5  19143.67  952.14  4.97
1882.3  18900.39  884.12  4.68
1885.1  18757.12  801.66  4.27
1887.8  18909.61  750.45  3.97
1890.6  18719.80  751.08  4.01
1893.4  18700.00  718.67  3.84
1896.2  18690.78  673.91  3.61
1898.9  18634.09  648.76  3.48
1901.7  18493.24  634.86  3.43
1904.5  18663.12  610.11  3.27
1907.2  18605.75  614.33  3.30
1910.0  18464.96  609.59  3.30
1912.7  18451.36  592.49  3.21
1915.5  18338.72  590.84  3.22
1918.2  18231.61  580.88  3.19
1921.0  18078.76  585.67  3.24
1923.7  18082.37  595.86  3.30
1926.5  18028.91  592.71  3.29
1929.2  17989.40  572.93  3.18
1932.0  17961.44  574.07  3.20
1934.7  17922.05  594.07  3.31
1937.4  17800.47  588.28  3.30
1940.2  17730.06  593.15  3.35
1942.9  17801.07  594.79  3.34
1945.6  17808.94  593.93  3.34
1948.3  17731.12  596.66  3.37
1951.1  17698.80  594.98  3.36
1953.8  17700.00  601.00  3.40
1956.5  17568.67  608.99  3.47
1959.2  17632.03  614.94  3.49
1961.9  17647.56  618.85  3.51
1964.6  17543.58  613.85  3.50
1967.3  17598.27  612.12  3.48
1970.0  17419.60  619.63  3.56
1972.8  17335.24  627.55  3.62
1975.5  17419.52  626.31  3.60
1978.2  17336.04  628.77  3.63
1980.9  17221.82  633.53  3.68
1983.5  17185.34  633.05  3.68
1986.2  17183.55  635.35  3.70
1988.9  17157.36  650.87  3.79
1991.6  17017.92  654.65  3.85
1994.3  16893.86  657.58  3.89
1997.0  16913.63  657.40  3.89
1999.7  16876.79  660.48  3.91
2002.3  16857.27  675.06  4.00
2005.0  16785.35  675.06  4.02
2007.7  16706.93  673.67  4.03
2010.4  16656.07  686.15  4.12
2013.0  16600.58  694.18  4.18
2015.7  16495.88  694.31  4.21
2018.4  16401.61  688.36  4.20
2021.0  16371.00  691.33  4.22
2023.7  16264.64  709.49  4.36
2026.4  16195.83  696.65  4.30
2029.0  16138.97  697.29  4.32
2031.7  16029.65  710.74  4.43
2034.3  16012.75  697.59  4.36
2037.0  15932.90  697.18  4.38
2039.6  15864.39  711.78  4.49
2042.3  15822.15  702.08  4.44
2044.9  15747.27  703.12  4.47
2047.5  15719.22  707.80  4.50
2050.2  15638.00  709.33  4.54
2052.8  15596.00  715.87  4.59
2055.4  15487.61  706.96  4.56
2058.1  15363.60  704.67  4.59
2060.7  15311.01  716.45  4.68
2063.3  15243.07  725.46  4.76
2065.9  15200.63  725.83  4.78
2068.6  15142.00  732.35  4.84
2071.2  15102.27  729.12  4.83
2073.8  15013.06  724.77  4.83
2076.4  14939.89  727.86  4.87
2079.0  14937.96  723.11  4.84
2081.6  14955.68  733.34  4.90
2084.2  14929.44  752.45  5.04
2086.8  14795.01  739.14  5.00
2089.4  14708.12  728.08  4.95
2092.1  14645.50  737.61  5.04
2094.7  14574.18  740.15  5.08
2097.2  14543.50  741.39  5.10
2099.8  14569.24  759.11  5.21
2102.4  14455.51  759.17  5.25
2105.0  14315.55  747.65  5.22
2107.6  14281.54  753.86  5.28
2110.2  14245.28  752.10  5.28
2112.8  14225.04  756.88  5.32
2115.3  14222.61  773.63  5.44
2117.9  14223.97  764.11  5.37
2120.5  14225.20  765.68  5.38
2123.1  14136.53  782.93  5.54
2125.6  14079.43  785.77  5.58
2128.2  14012.88  783.37  5.59
2130.8  13940.55  778.05  5.58
2133.3  13889.33  777.33  5.60
2135.9  13802.30  773.66  5.61
2138.4  13704.95  778.90  5.68
2141.0  13601.55  773.76  5.69
2143.6  13585.34  783.74  5.77
2146.1  13439.94  792.37  5.90
2148.7  13282.54  771.36  5.81
2151.2  13302.67  774.40  5.82
2153.8  13324.47  779.00  5.85
2156.3  13227.98  782.64  5.92
2158.8  13160.05  785.59  5.97
2161.4  13128.93  787.20  6.00
2163.9  13034.58  779.34  5.98
2166.4  12973.85  770.71  5.94
2169.0  12959.07  780.56  6.02
2171.5  12876.28  782.53  6.08
2174.0  12786.55  771.52  6.03
2176.5  12767.30  767.43  6.01
2179.1  12718.27  779.02  6.13
2181.6  12644.21  767.52  6.07
2184.1  12612.60  764.87  6.06
2186.6  12631.79  770.99  6.10
2189.1  12551.10  747.93  5.96
2191.6  12501.53  762.22  6.10
2194.1  12512.72  767.31  6.13
2196.6  12513.32  757.46  6.05
2199.2  12564.98  775.57  6.17
2201.7  12503.60  767.67  6.14
2204.1  12450.01  754.99  6.06
2206.6  12458.20  770.87  6.19
2209.1  12429.94  784.76  6.31
2211.6  12413.54  761.33  6.13
2214.1  12385.83  767.94  6.20
2216.6  12340.79  767.26  6.22
2219.1  12355.98  763.46  6.18
2221.6  12303.15  779.10  6.33
2224.0  12230.10  756.92  6.19
2226.5  12198.83  752.13  6.17
2229.0  12234.63  752.45  6.15
2231.5  12152.59  726.42  5.98
2233.9  12137.64  718.36  5.92
2236.4  12131.98  723.11  5.96
2238.9  12024.13  714.29  5.94
2241.3  12068.10  694.42  5.75
2243.8  12017.57  698.31  5.81
2246.2  11870.35  683.59  5.76
2248.7  11882.39  659.49  5.55
2251.2  11860.53  670.02  5.65
2253.6  11784.96  670.72  5.69
2256.1  11773.44  647.68  5.50
2258.5  11793.92  637.72  5.41
2260.9  11696.75  636.61  5.44
2263.4  11668.53  624.37  5.35
2265.8  11678.48  627.01  5.37
2268.3  11583.48  623.43  5.38
2270.7  11653.18  616.69  5.29
2273.1  11608.55  614.88  5.30
2275.6  11523.84  609.28  5.29
2278.0  11553.06  614.93  5.32
2280.4  11529.61  601.62  5.22
2282.8  11402.06  575.59  5.05
2285.3  11435.59  574.18  5.02
2287.7  11531.47  571.43  4.96
2290.1  11440.95  553.47  4.84
2292.5  11408.96  539.69  4.73
2294.9  11404.51  534.79  4.69
2297.3  11303.39  537.88  4.76
2299.7  11233.01  525.13  4.67
2302.1  11231.11  515.92  4.59
2304.5  11113.20  510.91  4.60
2306.9  10995.60  499.15  4.54
2309.3  10932.15  519.83  4.76
2311.7  10856.55  502.40  4.63
2314.1  10708.33  496.23  4.63
2316.5  10641.94  497.75  4.68
2318.9  10674.03  490.08  4.59
2321.3  10672.73  495.21  4.64
2323.7  10642.23  501.83  4.72
2326.1  10606.96  493.00  4.65
2328.4  10691.58  493.63  4.62
2330.8  10736.25  500.34  4.66
2333.2  10617.06  476.35  4.49
2335.6  10582.60  467.76  4.42
2337.9  10642.00  478.54  4.50
2340.3  10592.40  466.02  4.40
2342.7  10507.23  457.02  4.35
2345.0  10502.01  465.72  4.43
2347.4  10493.25  443.42  4.23
2349.7  10277.63  435.71  4.24
2352.1  10236.25  448.85  4.38
2354.4  10290.21  451.33  4.39
2356.8  10243.45  431.67  4.21
2359.2  10187.67  434.78  4.27
2361.5  10122.93  449.42  4.44
2363.8  10144.75  427.46  4.21
2366.2  10159.49  438.39  4.32
2368.5  10097.05  436.10  4.32
2370.9  10118.68  411.55  4.07
2373.2  10072.53  427.18  4.24
2375.5  9932.38  422.34  4.25
2377.9  9918.93  405.69  4.09
2380.2  9923.89  413.88  4.17
2382.5  9856.28  399.77  4.06
2384.8  9822.88  402.13  4.09
2387.2  9807.99  420.39  4.29
2389.5  9759.69  407.64  4.18
2391.8  9772.85  383.43  3.92
2394.1  9716.63  380.67  3.92
2396.4  9652.48  391.91  4.06
2398.7  9714.10  378.37  3.90
2401.0  9598.25  390.66  4.07
2403.3  9511.80  390.10  4.10
2405.6  9521.83  381.54  4.01
2407.9  9458.88  390.78  4.13
2410.2  9400.00  379.34  4.04
2412.5  9350.27  362.49  3.88
2414.8  9330.30  371.43  3.98
2417.1  9280.68  350.99  3.78
2419.4  9294.64  329.97  3.55
2421.7  9214.94  364.46  3.96
2424.0  9156.02  353.98  3.87
2426.2  9223.40  340.62  3.69
2428.5  9129.27  360.56  3.95
2430.8  9112.40  339.72  3.73
2433.1  9071.93  302.40  3.33
2435.4  8991.17  331.97  3.69
2437.6  8963.19  339.43  3.79
2439.9  8866.09  316.31  3.57
2442.2  8873.80  333.72  3.76
2444.4  8827.50  346.51  3.93
2446.7  8812.56  328.99  3.73
2448.9  8870.66  296.08  3.34
2451.2  8802.92  303.96  3.45
2453.4  8732.64  341.51  3.91
2455.7  8702.87  338.55  3.89
2457.9  8608.05  288.97  3.36
2460.2  8594.01  291.81  3.40
2462.4  8611.20  309.92  3.60
2464.7  8503.63  294.39  3.46
2466.9  8416.62  308.16  3.66
2469.2  8471.54  306.80  3.62
2471.4  8370.38  280.11  3.35
2473.6  8261.63  261.11  3.16
2475.9  8256.69  286.74  3.47
2478.1  8211.66  318.81  3.88
2480.3  8173.00  278.47  3.41
2482.5  8177.69  257.34  3.15
2484.8  8119.06  250.00  3.08
2487.0  8110.30  276.52  3.41
2489.2  8058.48  299.02  3.71
2491.4  7946.29  266.42  3.35
2493.6  7987.26  250.83  3.14
2495.8  7981.68  274.50  3.44
2498.0  7985.07  291.84  3.65
2500.2  7961.63  258.37  3.25
2502.4  8125.20  263.44  3.24
2504.6  8272.59  287.96  3.48
2506.8  8348.61  289.00  3.46
