/*** Spectra Vista SIG Data ***/
name= RS.sig
comm= SIG file reprocesed for matching/overlap;Averaged Ref/Tar of files: RS1,RS2,RS3
data=
346.4  468.20  120.50  25.74
347.9  473.76  121.74  25.70
349.5  521.04  122.10  23.43
351.1  558.48  124.69  22.33
352.6  585.06  123.87  21.17
354.2  625.05  134.17  21.47
355.7  673.50  137.73  20.45
357.3  724.71  140.66  19.41
358.8  751.43  138.99  18.50
360.4  798.47  145.39  18.21
361.9  821.87  148.70  18.09
363.5  851.78  144.16  16.92
365.1  887.68  143.79  16.20
366.6  918.37  148.92  16.22
368.2  973.68  146.16  15.01
369.7  1008.89  140.51  13.93
371.3  1073.36  142.13  13.24
372.8  1148.72  145.75  12.69
374.4  1191.49  149.63  12.56
375.9  1247.87  151.60  12.15
377.4  1278.23  149.83  11.72
379.0  1330.29  149.68  11.25
380.5  1360.26  147.52  10.84
382.1  1412.49  151.69  10.74
383.6  1460.03  147.52  10.10
385.2  1529.00  144.19  9.43
386.7  1608.26  143.23  8.91
388.3  1679.42  151.54  9.02
389.8  1759.55  156.01  8.87
391.3  1843.67  157.17  8.52
392.9  1897.62  164.63  8.68
394.4  1955.58  170.34  8.71
395.9  2019.02  180.87  8.96
397.5  2131.80  182.17  8.55
399.0  2240.25  188.70  8.42
400.6  2303.62  183.29  7.96
402.1  2342.64  168.39  7.19
403.6  2375.92  167.34  7.04
405.1  2451.81  165.59  6.75
406.7  2542.40  168.75  6.64
408.2  2650.73  173.30  6.54
409.7  2746.24  176.44  6.42
411.3  2843.51  181.46  6.38
412.8  2936.43  185.65  6.32
414.3  3034.90  194.09  6.40
415.8  3152.50  198.50  6.30
417.4  3253.58  205.35  6.31
418.9  3339.60  208.05  6.23
420.4  3424.70  211.11  6.16
421.9  3487.22  209.73  6.01
423.5  3546.87  205.33  5.79
425.0  3613.98  206.77  5.72
426.5  3695.85  206.97  5.60
428.0  3801.23  204.57  5.38
429.5  3926.30  204.74  5.21
431.1  4071.24  211.56  5.20
432.6  4225.66  212.63  5.03
434.1  4373.60  219.58  5.02
435.6  4514.36  223.30  4.95
437.1  4642.95  230.17  4.96
438.6  4769.06  235.54  4.94
440.1  4906.69  238.96  4.87
441.6  5042.30  243.77  4.83
443.1  5179.95  247.52  4.78
444.7  5318.34  251.81  4.73
446.2  5433.01  259.27  4.77
447.7  5551.25  264.73  4.77
449.2  5676.48  271.08  4.78
450.7  5788.64  266.52  4.60
452.2  5916.62  267.50  4.52
453.7  6028.91  269.57  4.47
455.2  6201.73  271.64  4.38
456.7  6390.56  275.03  4.30
458.2  6607.30  282.40  4.27
459.7  6823.25  290.97  4.26
461.2  7031.76  296.46  4.22
462.7  7219.07  303.53  4.20
464.2  7396.86  310.86  4.20
465.7  7583.22  318.30  4.20
467.2  7742.35  323.21  4.17
468.7  7912.00  334.13  4.22
470.2  8015.91  344.69  4.30
471.7  8177.13  352.05  4.31
473.2  8446.52  355.02  4.20
474.6  8688.33  354.42  4.08
476.1  8747.12  352.42  4.03
477.6  8779.39  351.31  4.00
479.1  8829.54  345.86  3.92
480.6  8916.06  344.08  3.86
482.1  9046.91  346.63  3.83
483.6  9204.08  347.45  3.77
485.1  9394.00  351.27  3.74
486.6  9626.34  356.24  3.70
488.0  9867.00  359.40  3.64
489.5  10130.90  368.16  3.63
491.0  10387.73  374.37  3.60
492.5  10649.88  383.78  3.60
494.0  10928.34  391.53  3.58
495.4  11158.95  399.74  3.58
496.9  11406.10  403.75  3.54
498.4  11649.48  410.82  3.53
499.9  11878.23  419.76  3.53
501.4  12101.58  426.71  3.53
502.8  12308.24  433.38  3.52
504.3  12497.40  438.96  3.51
505.8  12681.02  447.07  3.53
507.2  12808.72  446.11  3.48
508.7  12896.48  452.20  3.51
510.2  12964.78  454.25  3.50
511.6  13008.39  454.66  3.50
513.1  13093.74  451.29  3.45
514.6  13195.49  455.63  3.45
516.0  13281.41  455.85  3.43
517.5  13429.99  458.05  3.41
519.0  13603.01  459.77  3.38
520.5  13772.72  462.97  3.36
521.9  13993.28  468.32  3.35
523.4  14243.35  476.11  3.34
524.8  14493.24  480.57  3.32
526.3  14778.04  490.43  3.32
527.8  15074.01  501.67  3.33
529.2  15339.71  507.56  3.31
530.7  15629.94  518.82  3.32
532.1  15903.48  529.56  3.33
533.6  16214.37  540.03  3.33
535.0  16534.98  551.68  3.34
536.5  16856.03  564.59  3.35
538.0  17178.24  576.29  3.35
539.4  17501.02  590.85  3.38
540.9  17879.62  609.51  3.41
542.3  18237.67  625.63  3.43
543.8  18504.51  633.63  3.42
545.2  18600.74  639.33  3.44
546.6  18637.00  638.77  3.43
548.1  18690.38  645.09  3.45
549.5  18745.60  649.07  3.46
551.0  18790.92  656.48  3.49
552.4  18868.34  664.91  3.52
553.9  18922.09  668.86  3.53
555.3  18999.63  677.55  3.57
556.8  19143.87  693.02  3.62
558.2  19276.31  704.93  3.66
559.6  19441.66  720.66  3.71
561.1  19660.88  742.63  3.78
562.5  19883.82  763.86  3.84
564.0  20177.05  795.99  3.95
565.4  20444.07  826.66  4.04
566.8  20774.24  867.58  4.18
568.3  21077.79  904.45  4.29
569.7  21403.31  950.08  4.44
571.1  21706.83  1002.64  4.62
572.6  22010.94  1055.81  4.80
574.0  22299.75  1116.39  5.01
575.4  22570.31  1181.53  5.23
576.9  22820.49  1256.47  5.51
578.3  23040.88  1331.45  5.78
579.7  23243.15  1416.42  6.09
581.1  23410.31  1504.78  6.43
582.6  23592.46  1602.36  6.79
584.0  23735.52  1703.70  7.18
585.4  23971.18  1820.49  7.59
586.8  24286.87  1953.03  8.04
588.3  24642.54  2090.63  8.48
589.7  24935.04  2228.93  8.94
591.1  25126.37  2365.34  9.41
592.5  25213.30  2498.86  9.91
594.0  25248.06  2625.96  10.40
595.4  25246.58  2755.16  10.91
596.8  25248.80  2892.82  11.46
598.2  25256.70  3030.80  12.00
599.6  25254.00  3170.21  12.55
601.0  25321.45  3322.47  13.12
602.4  25392.58  3471.46  13.67
603.9  25508.50  3628.49  14.22
605.3  25652.08  3785.83  14.76
606.7  25770.60  3937.44  15.28
608.1  26003.60  4108.44  15.80
609.5  26249.20  4277.71  16.30
610.9  26543.12  4459.41  16.80
612.3  26820.62  4637.04  17.29
613.7  27191.20  4821.55  17.73
615.1  27470.34  4990.09  18.17
616.5  27748.85  5158.52  18.59
617.9  28163.94  5357.11  19.02
619.3  28559.37  5562.83  19.48
620.7  29021.55  5795.27  19.97
622.1  29524.34  5960.28  20.19
623.5  30070.32  6085.04  20.24
624.9  30686.25  6232.07  20.31
626.3  31117.56  6363.90  20.45
627.7  30854.43  6414.35  20.79
629.1  30617.27  6507.22  21.25
630.5  30534.25  6653.05  21.79
631.9  30583.88  6817.28  22.29
633.3  30636.73  6965.43  22.74
634.7  30802.72  7125.03  23.13
636.1  30887.16  7213.63  23.35
637.5  30991.21  7286.30  23.51
638.9  31137.59  7347.92  23.60
640.2  31275.86  7387.69  23.62
641.6  31334.94  7391.67  23.59
643.0  31307.82  7361.66  23.51
644.4  31297.86  7327.50  23.41
645.8  31223.60  7261.85  23.26
647.2  31327.01  7256.29  23.16
648.5  31378.61  7252.00  23.11
649.9  31215.99  7222.22  23.14
651.3  31061.55  7216.33  23.23
652.7  30880.50  7185.99  23.27
654.1  30705.72  6971.48  22.70
655.5  30448.41  6700.86  22.01
656.8  30219.54  6446.43  21.33
658.2  30347.48  6274.60  20.68
659.6  30667.01  6149.77  20.05
660.9  30915.41  6012.36  19.45
662.3  31175.28  5859.66  18.80
663.7  31418.10  5694.99  18.13
665.0  31622.76  5528.97  17.48
666.4  31821.65  5380.77  16.91
667.8  32088.83  5260.80  16.39
669.1  32304.87  5152.79  15.95
670.5  32567.66  5070.64  15.57
671.9  32723.64  5002.15  15.29
673.2  32957.22  4979.78  15.11
674.6  33165.65  4980.84  15.02
676.0  33416.99  5027.40  15.04
677.3  33670.84  5113.96  15.19
678.7  33959.63  5247.05  15.45
680.0  34360.72  5475.72  15.94
681.4  34770.40  5790.56  16.65
682.8  35166.95  6224.78  17.70
684.1  35575.02  6796.76  19.11
685.5  35948.61  7502.77  20.87
686.8  36307.14  8346.70  22.99
688.2  36654.12  9309.72  25.40
689.5  36792.82  10331.66  28.08
690.9  36894.22  11430.32  30.98
692.2  37000.50  12557.05  33.94
693.6  37086.31  13714.94  36.98
694.9  37102.94  14827.31  39.96
696.2  37172.03  15914.08  42.81
697.6  37238.58  16939.63  45.49
698.9  37321.68  17936.07  48.06
700.3  37412.04  18885.26  50.48
701.6  37521.51  19775.72  52.71
703.0  37648.39  20587.48  54.68
704.3  37727.46  21292.25  56.44
705.6  37779.39  21951.53  58.10
707.0  37853.11  22561.98  59.60
708.3  37804.36  23039.95  60.95
709.6  37779.31  23487.41  62.17
711.0  37700.05  23858.11  63.28
712.3  37603.29  24180.25  64.30
713.6  37599.66  24532.24  65.25
714.9  37564.50  24834.05  66.11
716.3  37606.65  25146.98  66.87
717.6  37655.10  25469.21  67.64
718.9  37643.31  25680.63  68.22
720.2  37519.65  25775.43  68.70
721.6  37437.79  25889.52  69.15
722.9  37295.06  25994.35  69.70
724.2  37099.21  26024.34  70.15
725.5  36957.59  26093.22  70.60
726.8  36833.83  26111.97  70.89
728.1  36764.75  26152.53  71.13
729.5  36694.32  26178.84  71.34
730.8  36660.60  26221.88  71.53
732.1  36590.42  26235.51  71.70
733.4  36549.03  26265.25  71.86
734.7  36509.02  26270.86  71.96
736.0  36510.50  26315.90  72.08
737.3  36452.29  26342.25  72.27
738.6  36538.42  26452.94  72.40
739.9  36706.85  26651.89  72.61
741.2  36841.35  26788.31  72.71
742.5  37078.82  27015.76  72.86
743.8  37494.19  27382.26  73.03
745.1  38118.44  27904.80  73.21
746.4  38876.11  28471.99  73.24
747.7  39639.96  29017.45  73.20
749.0  40400.48  29552.73  73.15
750.3  40850.46  29807.00  72.97
751.6  40764.46  29748.07  72.98
752.9  40356.61  29509.94  73.12
754.2  39863.99  29235.98  73.34
755.4  39350.05  28929.62  73.52
756.7  39155.03  28868.49  73.73
758.0  39142.09  28939.57  73.93
759.3  39351.46  29171.18  74.13
760.6  39645.76  29491.10  74.39
761.9  39928.94  29781.27  74.59
763.1  40078.15  29933.73  74.69
764.4  40287.45  30113.21  74.75
765.7  40433.25  30254.25  74.83
767.0  40515.07  30344.03  74.90
768.2  40595.52  30444.62  75.00
769.5  40644.33  30517.93  75.09
770.8  40787.04  30651.81  75.15
772.0  40799.41  30678.43  75.19
773.3  40833.29  30757.67  75.32
774.6  40907.98  30845.33  75.40
775.8  40955.53  30885.95  75.41
777.1  40964.33  30888.34  75.40
778.4  40867.87  30831.07  75.44
779.6  40816.98  30830.33  75.53
780.9  40688.00  30798.40  75.69
782.1  40484.72  30699.87  75.83
783.4  40464.32  30682.36  75.83
784.6  40463.12  30701.15  75.87
785.9  40670.74  30956.12  76.11
787.1  41171.80  31381.29  76.22
788.4  41528.97  31608.76  76.11
789.6  41482.13  31423.57  75.75
790.9  41134.16  31049.54  75.48
792.1  40655.28  30734.56  75.60
793.4  40180.32  30412.73  75.69
794.6  39846.60  30174.77  75.73
795.8  39587.54  29991.39  75.76
797.1  39290.10  29801.40  75.85
798.3  39054.26  29681.30  76.00
799.5  38943.25  29599.61  76.01
800.8  38778.22  29506.65  76.09
802.0  38618.88  29391.00  76.11
803.2  38465.20  29253.89  76.05
804.5  38332.71  29179.02  76.12
805.7  38219.65  29052.99  76.02
806.9  38073.35  28953.67  76.05
808.1  37984.05  28910.16  76.11
809.4  37906.28  28866.52  76.15
810.6  37824.15  28819.85  76.19
811.8  37796.29  28842.42  76.31
813.0  37827.58  28852.32  76.27
814.2  37840.50  28899.33  76.37
815.4  37955.24  28965.55  76.32
816.6  38027.91  28982.29  76.21
817.9  38102.35  28986.26  76.07
819.1  38072.96  28910.37  75.93
820.3  37949.69  28797.25  75.88
821.5  37894.61  28713.99  75.77
822.7  37866.54  28672.66  75.72
823.9  37906.28  28650.73  75.58
825.1  37943.15  28628.93  75.45
826.3  38020.73  28611.09  75.25
827.5  38108.05  28617.42  75.10
828.7  38176.32  28581.62  74.87
829.9  38262.68  28568.68  74.66
831.0  38386.63  28618.27  74.55
832.2  38533.16  28661.19  74.38
833.4  38634.36  28697.86  74.28
834.6  38746.88  28754.07  74.21
835.8  38872.58  28801.87  74.09
837.0  39026.76  28906.47  74.07
838.1  39200.00  29035.87  74.07
839.3  39334.99  29119.19  74.03
840.5  39499.16  29228.17  74.00
841.7  39675.29  29390.58  74.08
842.9  39834.34  29554.08  74.19
844.0  40002.80  29672.01  74.17
845.2  40188.33  29804.07  74.16
846.4  40315.24  29893.13  74.15
847.5  40575.08  30085.49  74.15
848.7  40794.29  30232.82  74.11
849.9  41043.27  30350.98  73.95
851.0  41176.72  30379.28  73.78
852.2  41283.01  30411.84  73.67
853.3  41336.03  30391.73  73.52
854.5  41385.60  30403.93  73.46
855.6  41408.01  30403.06  73.42
856.8  41491.09  30469.14  73.44
857.9  41535.42  30479.14  73.38
859.1  41657.80  30583.98  73.42
860.2  41711.76  30593.02  73.34
861.4  41789.90  30643.59  73.33
862.5  41857.52  30685.82  73.31
863.7  41978.22  30735.30  73.22
864.8  42001.40  30779.08  73.28
865.9  42003.19  30750.83  73.21
867.1  42077.89  30763.31  73.11
868.2  42118.25  30770.37  73.06
869.3  42153.63  30746.63  72.94
870.5  42092.46  30684.46  72.90
871.6  42122.53  30706.00  72.90
872.7  42223.14  30768.15  72.87
873.9  42262.83  30737.01  72.73
875.0  42247.20  30697.76  72.66
876.1  42225.11  30660.57  72.61
877.2  42279.84  30644.66  72.48
878.3  42302.12  30591.71  72.32
879.4  42284.06  30575.37  72.31
880.5  42343.92  30542.16  72.13
881.7  42326.05  30474.93  72.00
882.8  42351.34  30445.41  71.89
883.9  42430.09  30385.61  71.61
885.0  42357.32  30284.21  71.50
886.1  42357.47  30185.29  71.26
887.2  42241.92  30007.57  71.04
888.3  42147.85  29862.30  70.85
889.4  42045.32  29695.95  70.63
890.5  41945.29  29600.64  70.57
891.6  41864.40  29512.30  70.49
892.7  41844.69  29414.93  70.30
893.8  41881.85  29426.62  70.26
894.9  41879.31  29388.56  70.17
896.0  41812.69  29283.26  70.03
897.0  41850.92  29231.02  69.85
898.1  41821.61  29175.13  69.76
899.2  41852.54  29129.28  69.60
900.3  41747.94  29028.24  69.53
901.4  41622.41  28899.69  69.43
902.4  41658.53  28867.09  69.29
903.5  41604.82  28776.35  69.17
904.6  41550.72  28720.15  69.12
905.7  41565.54  28661.55  68.96
906.7  41536.49  28581.26  68.81
907.8  41558.34  28552.03  68.70
908.9  41493.73  28428.87  68.51
909.9  41451.58  28326.55  68.34
911.0  41358.23  28232.52  68.26
912.1  41297.17  28092.69  68.03
913.1  41189.72  27973.57  67.91
914.2  41099.85  27809.57  67.66
915.2  41068.89  27736.90  67.54
916.3  41034.15  27638.51  67.35
917.3  40975.74  27536.05  67.20
918.4  40862.80  27341.24  66.91
919.4  40836.29  27205.75  66.62
920.5  40782.84  27100.07  66.45
921.5  40833.45  26990.76  66.10
922.6  40729.18  26824.52  65.86
923.6  40739.49  26731.83  65.62
924.7  40774.75  26621.66  65.29
925.7  40746.72  26488.26  65.01
926.7  40808.40  26351.77  64.57
927.8  40839.01  26200.88  64.16
928.8  40966.59  26106.64  63.73
929.9  41048.46  26028.63  63.41
930.9  41217.18  25988.90  63.05
931.9  41378.61  25976.57  62.78
932.9  41679.25  25994.76  62.37
934.0  41702.58  25843.73  61.97
935.0  41757.18  25692.14  61.53
936.0  41670.71  25535.85  61.28
937.0  41632.50  25359.35  60.91
938.1  41580.55  25168.51  60.53
939.1  41508.45  25013.22  60.26
940.1  41591.64  24898.33  59.86
941.1  41779.29  24835.47  59.44
942.1  41991.60  24788.79  59.03
943.1  42156.63  24732.14  58.67
944.1  42391.18  24688.12  58.24
945.2  42445.20  24512.75  57.75
946.2  42493.04  24365.67  57.34
947.2  42572.63  24202.06  56.85
948.2  42750.54  24112.45  56.40
949.2  42846.38  23928.32  55.85
950.2  42880.60  23755.27  55.40
951.2  42968.52  23570.57  54.86
952.2  43001.40  23401.38  54.42
953.2  43164.71  23273.06  53.92
954.2  43310.48  23155.20  53.46
955.2  43368.34  22958.75  52.94
956.2  43301.73  22784.29  52.62
957.2  43392.87  22638.90  52.17
958.2  43492.10  22550.01  51.85
959.2  43506.45  22454.75  51.61
960.1  43588.22  22346.69  51.27
961.1  43692.83  22321.06  51.09
962.1  43658.44  22274.53  51.02
963.1  43782.00  22205.99  50.72
964.1  43817.42  22210.66  50.69
965.1  43908.74  22238.91  50.65
966.1  44007.38  22250.91  50.56
967.0  44141.86  22208.49  50.31
968.0  44131.86  22197.59  50.30
969.0  44255.20  22191.80  50.15
970.0  44255.36  22192.43  50.15
971.0  44316.83  22201.71  50.10
971.9  44400.90  22165.81  49.92
972.9  44577.14  22168.09  49.73
973.9  44494.78  22110.45  49.69
974.9  44573.29  22104.40  49.59
975.8  44702.44  22053.20  49.33
976.8  44666.28  21979.17  49.21
977.8  44950.93  22003.97  48.95
978.8  44877.90  22042.84  49.12
979.7  45104.10  22086.34  48.97
981.4  47578.80  23473.74  49.34
985.3  47203.20  23308.76  49.38
989.3  47137.31  23335.56  49.51
993.3  47133.16  23422.37  49.69
997.2  47029.21  23508.50  49.99
1001.2  46955.35  23664.85  50.40
1005.2  46914.32  23931.47  51.01
1009.1  47038.13  24313.12  51.69
1013.1  47236.75  24747.07  52.39
1017.1  47375.30  25178.18  53.15
1021.0  47429.61  25521.20  53.81
1025.0  47461.87  25852.63  54.47
1029.0  47354.18  26118.35  55.16
1032.9  47271.77  26392.38  55.83
1036.9  47308.70  26749.11  56.54
1040.9  47476.08  27175.19  57.24
1044.8  47747.63  27635.13  57.88
1048.8  47970.59  28044.25  58.46
1052.7  48104.60  28384.96  59.01
1056.7  48183.46  28619.55  59.40
1060.7  48250.82  28797.14  59.68
1064.6  48272.17  28939.88  59.95
1068.6  48190.54  28959.53  60.09
1072.5  48116.11  28924.89  60.11
1076.5  48076.67  28879.44  60.07
1080.4  48048.88  28796.74  59.93
1084.4  48150.59  28707.04  59.62
1088.3  48279.53  28589.37  59.22
1092.3  48252.92  28369.48  58.79
1096.2  48221.83  28120.04  58.31
1100.2  48245.69  27899.93  57.83
1104.1  48124.97  27589.47  57.33
1108.1  48059.38  27295.62  56.80
1112.0  47955.87  26945.64  56.19
1116.0  47754.46  26482.24  55.46
1119.9  47569.76  25975.77  54.61
1123.9  47623.80  25485.65  53.51
1127.8  47592.96  24750.08  52.00
1131.8  47556.42  23802.34  50.05
1135.7  47568.82  22707.33  47.74
1139.6  47554.30  21518.98  45.25
1143.6  47510.71  20383.62  42.90
1147.5  47481.98  19430.69  40.92
1151.4  47337.52  18653.96  39.41
1155.4  47322.86  18157.99  38.37
1159.3  47329.81  17845.49  37.70
1163.2  47159.49  17573.79  37.26
1167.2  47113.86  17408.54  36.95
1171.1  47117.13  17286.92  36.69
1175.0  47022.16  17159.59  36.49
1179.0  46962.63  17048.39  36.30
1182.9  47045.30  16979.39  36.09
1186.8  47019.62  16881.34  35.90
1190.7  46784.64  16719.24  35.74
1194.7  46508.35  16571.38  35.63
1198.6  46264.68  16471.46  35.60
1202.5  46100.54  16426.07  35.63
1206.4  45962.62  16408.43  35.70
1210.3  45829.98  16432.19  35.85
1214.2  45707.13  16471.77  36.04
1218.2  45554.16  16507.58  36.24
1222.1  45384.95  16572.59  36.52
1226.0  45257.55  16646.16  36.78
1229.9  45156.00  16715.14  37.02
1233.8  45033.17  16766.51  37.23
1237.7  44950.68  16819.73  37.42
1241.6  44841.64  16868.09  37.62
1245.5  44683.61  16883.36  37.78
1249.4  44538.65  16883.82  37.91
1253.3  44401.40  16892.62  38.05
1257.2  44324.52  16926.17  38.19
1261.1  44209.48  16916.69  38.26
1265.0  44086.55  16877.92  38.28
1268.9  43910.05  16798.95  38.26
1272.8  43969.80  16781.75  38.17
1276.7  44155.69  16789.50  38.02
1280.6  44249.88  16740.39  37.83
1284.5  44188.89  16596.55  37.56
1288.4  44167.03  16436.98  37.22
1292.3  44060.50  16224.08  36.82
1296.2  43934.23  15970.08  36.35
1300.1  43787.98  15666.30  35.78
1303.9  43564.57  15305.61  35.13
1307.8  43339.22  14915.01  34.41
1311.7  43109.06  14498.37  33.63
1315.6  42877.90  14064.94  32.80
1319.5  42633.84  13596.24  31.89
1323.3  42417.44  13121.47  30.93
1327.2  42218.70  12656.53  29.98
1331.1  42002.86  12174.49  28.98
1335.0  41739.72  11685.65  28.00
1338.8  41543.11  11249.73  27.08
1342.7  41389.31  10860.76  26.24
1346.5  41042.00  10441.26  25.44
1350.4  40741.74  10059.57  24.69
1354.3  40332.24  9670.23  23.98
1358.1  39895.31  9288.51  23.28
1362.0  39644.33  8957.07  22.59
1365.8  39567.12  8650.96  21.86
1369.7  39683.68  8351.36  21.04
1373.5  39615.26  7926.59  20.01
1377.4  39354.79  7360.75  18.70
1381.2  39167.92  6720.14  17.16
1385.1  39160.09  6090.31  15.55
1389.0  39060.88  5463.36  13.99
1392.8  38834.72  4845.71  12.48
1396.6  38680.88  4305.40  11.13
1400.5  38476.57  3850.30  10.01
1404.3  38299.58  3495.32  9.13
1408.2  38263.03  3229.24  8.44
1412.0  38218.70  3024.83  7.91
1415.8  38249.29  2880.31  7.53
1419.6  38208.11  2759.13  7.22
1423.5  38172.20  2669.00  6.99
1427.3  38125.77  2611.55  6.85
1431.1  38099.78  2566.03  6.74
1434.9  38010.73  2526.94  6.65
1438.8  37949.80  2501.74  6.59
1442.6  37913.52  2484.95  6.55
1446.4  37795.09  2463.28  6.52
1450.2  37700.99  2449.67  6.50
1454.0  37583.52  2444.16  6.50
1457.8  37547.69  2451.05  6.53
1461.6  37527.24  2462.95  6.56
1465.4  37404.28  2481.17  6.63
1469.2  37216.73  2503.26  6.73
1473.0  37080.95  2534.30  6.83
1476.8  37019.78  2596.16  7.01
1480.7  36949.43  2664.91  7.21
1484.4  36826.56  2742.08  7.45
1488.2  36723.96  2832.52  7.71
1492.0  36584.11  2932.70  8.02
1495.8  36452.33  3025.75  8.30
1499.6  36350.05  3092.61  8.51
1503.4  36216.75  3125.41  8.63
1507.2  36087.28  3134.90  8.69
1510.9  35929.91  3159.93  8.79
1514.7  35749.31  3214.60  8.99
1518.5  35615.65  3292.12  9.24
1522.3  35466.30  3360.03  9.47
1526.0  35355.47  3426.26  9.69
1529.8  35294.61  3505.39  9.93
1533.6  35159.29  3582.61  10.19
1537.3  35020.99  3659.12  10.45
1541.1  34889.16  3727.86  10.68
1544.8  34754.40  3798.40  10.93
1548.6  34607.98  3870.44  11.18
1552.4  34514.76  3938.91  11.41
1556.1  34455.77  4000.60  11.61
1559.9  34373.05  4058.63  11.81
1563.6  34243.93  4121.03  12.03
1567.3  34122.03  4197.64  12.30
1571.1  33904.82  4260.99  12.57
1574.8  33749.79  4332.40  12.84
1578.6  33637.37  4399.49  13.08
1582.3  33496.17  4444.34  13.27
1586.0  33359.51  4478.92  13.43
1589.8  33217.24  4512.05  13.58
1593.5  33051.52  4542.18  13.74
1597.2  32917.71  4578.71  13.91
1600.9  32767.31  4616.16  14.09
1604.7  32613.52  4648.20  14.25
1608.4  32493.03  4689.29  14.43
1612.1  32320.35  4723.50  14.61
1615.8  32161.00  4751.85  14.78
1619.5  32072.28  4793.49  14.95
1623.2  31915.49  4820.76  15.10
1626.9  31725.78  4838.35  15.25
1630.6  31537.44  4859.36  15.41
1634.3  31397.73  4881.94  15.55
1638.0  31241.74  4891.92  15.66
1641.7  31050.65  4886.47  15.74
1645.4  30870.63  4874.98  15.79
1649.1  30683.95  4859.62  15.84
1652.8  30504.58  4847.29  15.89
1656.4  30322.32  4826.67  15.92
1660.1  30158.02  4809.82  15.95
1663.8  29966.42  4788.04  15.98
1667.5  29809.99  4767.22  15.99
1671.1  29676.54  4746.75  15.99
1674.8  29472.79  4713.44  15.99
1678.5  29413.48  4690.36  15.95
1682.1  29419.35  4671.85  15.88
1685.8  29417.21  4655.80  15.83
1689.5  29310.65  4616.52  15.75
1693.1  29167.59  4565.41  15.65
1696.8  29020.13  4518.04  15.57
1700.4  28874.60  4461.49  15.45
1704.0  28754.23  4397.30  15.29
1707.7  28493.62  4315.91  15.15
1711.3  28200.13  4225.61  14.98
1715.0  27991.44  4141.21  14.79
1718.6  27822.35  4066.01  14.61
1722.2  27677.55  3998.08  14.45
1725.9  27527.50  3929.17  14.27
1729.5  27386.37  3868.84  14.13
1733.1  27262.24  3827.20  14.04
1736.7  27144.69  3790.42  13.96
1740.3  26982.07  3739.40  13.86
1744.0  26899.89  3690.64  13.72
1747.5  26760.07  3623.96  13.54
1751.2  26551.35  3547.66  13.36
1754.8  26397.18  3478.92  13.18
1758.4  26262.14  3417.07  13.01
1762.0  26085.49  3354.16  12.86
1765.5  25956.49  3306.37  12.74
1769.1  25915.20  3276.00  12.64
1772.7  25841.75  3247.37  12.57
1776.3  25724.16  3211.46  12.48
1779.9  25608.69  3174.52  12.40
1783.5  25553.92  3152.91  12.34
1787.0  25434.82  3126.25  12.29
1790.6  25293.30  3097.74  12.25
1794.2  25193.03  3078.81  12.22
1797.8  25095.48  3068.94  12.23
1801.3  25012.46  3059.82  12.23
1804.9  24871.88  3045.88  12.25
1808.4  24792.34  3039.99  12.26
1812.0  24660.35  3022.70  12.26
1815.5  24519.60  3012.59  12.29
1819.1  24324.68  2991.68  12.30
1822.6  24164.48  2968.73  12.29
1826.2  24042.90  2947.74  12.26
1829.7  23859.90  2917.94  12.23
1833.2  23612.46  2879.14  12.19
1836.8  23400.20  2842.08  12.15
1840.3  23257.80  2803.20  12.05
1843.8  23131.92  2780.59  12.02
1847.3  23013.03  2760.78  12.00
1850.8  22865.47  2724.29  11.91
1854.3  22692.74  2670.36  11.77
1857.8  22594.00  2570.53  11.38
1861.3  22615.25  2450.08  10.83
1864.8  22605.64  2307.20  10.21
1868.3  22468.36  2122.71  9.45
1871.8  22341.12  1925.12  8.62
1875.3  22323.21  1753.27  7.85
1878.8  22320.32  1608.67  7.21
1882.3  22237.89  1472.61  6.62
1885.8  22045.10  1343.85  6.10
1889.3  21861.76  1265.05  5.79
1892.7  21710.01  1207.09  5.56
1896.2  21503.16  1151.21  5.35
1899.7  21232.37  1135.89  5.35
1901.7  20074.51  685.81  3.42
1904.5  20223.67  661.25  3.27
1907.2  20168.50  646.00  3.20
1910.0  20030.00  622.56  3.11
1912.7  20048.69  601.84  3.00
1915.5  19979.54  603.39  3.02
1918.2  19877.64  594.00  2.99
1921.0  19705.09  589.10  2.99
1923.7  19733.20  605.86  3.07
1926.5  19715.86  593.80  3.01
1929.2  19701.76  577.20  2.93
1932.0  19674.16  579.33  2.94
1934.7  19635.47  587.81  2.99
1937.4  19518.79  583.11  2.99
1940.2  19475.71  579.84  2.98
1942.9  19573.26  599.87  3.06
1945.6  19572.62  594.94  3.04
1948.3  19494.00  579.61  2.97
1951.1  19465.67  578.92  2.97
1953.8  19476.00  589.00  3.02
1956.5  19368.67  601.00  3.10
1959.2  19423.04  594.01  3.06
1961.9  19438.54  610.90  3.14
1964.6  19331.55  616.82  3.19
1967.3  19375.30  599.27  3.09
1970.0  19228.16  606.80  3.16
1972.8  19159.08  628.54  3.28
1975.5  19219.42  627.28  3.26
1978.2  19120.16  630.72  3.30
1980.9  19002.89  648.10  3.41
1983.5  18950.70  634.02  3.35
1986.2  18944.10  630.50  3.33
1988.9  18909.18  677.06  3.58
1991.6  18787.78  669.13  3.56
1994.3  18678.85  655.65  3.51
1997.0  18669.58  677.58  3.63
1999.7  18631.37  678.67  3.64
2002.3  18617.79  683.69  3.67
2005.0  18540.12  697.11  3.76
2007.7  18469.93  704.25  3.81
2010.4  18400.48  696.62  3.79
2013.0  18316.11  699.87  3.82
2015.7  18226.45  711.36  3.90
2018.4  18129.14  703.50  3.88
2021.0  18062.50  725.33  4.02
2023.7  17946.51  733.99  4.09
2026.4  17902.73  725.76  4.05
2029.0  17806.29  746.03  4.19
2031.7  17677.40  731.40  4.14
2034.3  17722.47  740.78  4.18
2037.0  17610.64  763.81  4.34
2039.6  17527.07  749.28  4.27
2042.3  17481.88  746.08  4.27
2044.9  17393.81  759.22  4.36
2047.5  17348.93  773.25  4.46
2050.2  17253.60  769.07  4.46
2052.8  17214.40  763.47  4.44
2055.4  17090.17  762.99  4.46
2058.1  16973.60  758.80  4.47
2060.7  16918.14  772.35  4.57
2063.3  16842.61  778.41  4.62
2065.9  16794.67  773.29  4.60
2068.6  16710.92  790.97  4.73
2071.2  16664.67  804.45  4.83
2073.8  16591.32  793.80  4.78
2076.4  16536.88  798.03  4.83
2079.0  16525.61  800.85  4.85
2081.6  16519.89  802.74  4.86
2084.2  16487.00  822.05  4.99
2086.8  16353.42  818.33  5.00
2089.4  16268.28  811.29  4.99
2092.1  16209.50  828.28  5.11
2094.7  16113.80  824.90  5.12
2097.2  16087.67  823.55  5.12
2099.8  16089.36  851.16  5.29
2102.4  15953.94  849.21  5.32
2105.0  15826.05  828.40  5.23
2107.6  15774.07  837.41  5.31
2110.2  15742.83  843.03  5.36
2112.8  15734.02  860.91  5.47
2115.3  15735.22  872.73  5.55
2117.9  15738.64  859.86  5.46
2120.5  15682.70  872.56  5.56
2123.1  15604.88  882.38  5.65
2125.6  15567.02  887.28  5.70
2128.2  15487.92  883.86  5.71
2130.8  15394.28  888.23  5.77
2133.3  15347.20  892.71  5.82
2135.9  15264.31  882.50  5.78
2138.4  15119.35  887.93  5.87
2141.0  15032.51  900.11  5.99
2143.6  14998.41  895.14  5.97
2146.1  14847.40  882.48  5.94
2148.7  14686.27  883.94  6.02
2151.2  14704.80  893.69  6.08
2153.8  14713.72  906.55  6.16
2156.3  14589.47  899.78  6.17
2158.8  14533.35  898.80  6.18
2161.4  14517.59  912.02  6.28
2163.9  14426.20  897.28  6.22
2166.4  14354.62  886.01  6.17
2169.0  14310.27  899.81  6.29
2171.5  14227.48  905.73  6.37
2174.0  14143.15  905.39  6.40
2176.5  14124.76  899.99  6.37
2179.1  14082.55  899.49  6.39
2181.6  13967.33  900.33  6.45
2184.1  13937.00  911.68  6.54
2186.6  13993.83  914.30  6.53
2189.1  13896.09  896.66  6.45
2191.6  13840.87  908.13  6.56
2194.1  13877.92  906.82  6.53
2196.6  13844.81  904.65  6.53
2199.2  13897.52  920.92  6.63
2201.7  13871.80  922.88  6.65
2204.1  13802.39  905.26  6.56
2206.6  13786.08  906.39  6.57
2209.1  13743.34  927.33  6.75
2211.6  13738.26  912.33  6.64
2214.1  13693.60  899.73  6.57
2216.6  13643.61  902.74  6.62
2219.1  13655.01  906.54  6.64
2221.6  13597.41  903.45  6.64
2224.0  13563.60  899.16  6.63
2226.5  13534.39  884.03  6.53
2229.0  13551.73  888.22  6.55
2231.5  13416.49  874.52  6.52
2233.9  13376.81  851.77  6.37
2236.4  13409.64  873.65  6.52
2238.9  13341.63  858.96  6.44
2241.3  13300.17  833.04  6.26
2243.8  13261.31  843.41  6.36
2246.2  13153.53  827.02  6.29
2248.7  13089.53  799.61  6.11
2251.2  13067.33  800.69  6.13
2253.6  13017.60  796.16  6.12
2256.1  12979.20  764.16  5.89
2258.5  12980.99  772.18  5.95
2260.9  12912.45  750.39  5.81
2263.4  12850.74  719.05  5.60
2265.8  12840.17  739.84  5.76
2268.3  12768.77  731.19  5.73
2270.7  12812.36  712.65  5.56
2273.1  12778.22  704.36  5.51
2275.6  12710.40  704.00  5.54
2278.0  12729.12  707.17  5.56
2280.4  12680.26  704.24  5.55
2282.8  12544.20  678.83  5.41
2285.3  12570.98  657.13  5.23
2287.7  12679.54  679.47  5.36
2290.1  12579.51  676.02  5.37
2292.5  12520.09  644.19  5.15
2294.9  12538.64  637.54  5.08
2297.3  12458.25  631.48  5.07
2299.7  12334.59  623.84  5.06
2302.1  12311.40  614.13  4.99
2304.5  12214.72  582.77  4.77
2306.9  12089.28  569.71  4.71
2309.3  11994.02  579.92  4.84
2311.7  11939.85  571.74  4.79
2314.1  11791.37  539.56  4.58
2316.5  11721.50  555.54  4.74
2318.9  11765.88  568.91  4.84
2321.3  11730.50  567.84  4.84
2323.7  11744.39  576.37  4.91
2326.1  11719.24  546.74  4.67
2328.4  11761.55  551.94  4.69
2330.8  11807.83  567.15  4.80
2333.2  11712.54  543.62  4.64
2335.6  11662.03  530.03  4.54
2337.9  11681.16  542.53  4.64
2340.3  11629.38  533.19  4.58
2342.7  11548.22  506.39  4.39
2345.0  11508.47  518.09  4.50
2347.4  11492.00  514.25  4.47
2349.7  11315.65  489.82  4.33
2352.1  11286.89  498.88  4.42
2354.4  11296.02  502.90  4.45
2356.8  11214.70  487.78  4.35
2359.2  11154.00  473.78  4.25
2361.5  11109.05  474.15  4.27
2363.8  11141.66  480.16  4.31
2366.2  11165.73  482.52  4.32
2368.5  11089.40  477.63  4.31
2370.9  11067.03  469.70  4.24
2373.2  11030.32  475.15  4.31
2375.5  10914.30  466.08  4.27
2377.9  10876.18  449.76  4.14
2380.2  10876.88  467.33  4.30
2382.5  10821.23  451.84  4.18
2384.8  10769.44  417.60  3.88
2387.2  10736.28  429.77  4.00
2389.5  10704.02  440.69  4.12
2391.8  10661.73  419.88  3.94
2394.1  10613.91  439.85  4.14
2396.4  10610.47  449.97  4.24
2398.7  10654.34  410.85  3.86
2401.0  10513.07  420.33  4.00
2403.3  10428.12  415.00  3.98
2405.6  10456.51  399.87  3.82
2407.9  10375.71  409.15  3.94
2410.2  10317.44  406.08  3.94
2412.5  10224.31  391.29  3.83
2414.8  10187.84  391.97  3.85
2417.1  10204.62  381.97  3.74
2419.4  10195.97  359.49  3.53
2421.7  10103.31  378.48  3.75
2424.0  10048.90  361.03  3.59
2426.2  10074.05  342.40  3.40
2428.5  10032.46  365.97  3.65
2430.8  10006.20  359.70  3.59
2433.1  9945.94  346.65  3.49
2435.4  9886.37  356.22  3.60
2437.6  9830.42  367.41  3.74
2439.9  9708.34  342.52  3.53
2442.2  9709.99  341.30  3.51
2444.4  9752.18  344.60  3.53
2446.7  9688.56  321.20  3.32
2448.9  9658.24  361.22  3.74
2451.2  9631.36  359.59  3.73
2453.4  9564.32  315.39  3.30
2455.7  9566.46  338.55  3.54
2457.9  9468.86  337.81  3.57
2460.2  9395.46  324.69  3.46
2462.4  9422.40  345.28  3.66
2464.7  9348.95  309.11  3.31
2466.9  9251.22  276.06  2.98
2469.2  9249.34  306.80  3.32
2471.4  9151.61  310.75  3.40
2473.6  9078.42  305.74  3.37
2475.9  9042.40  327.38  3.62
2478.1  8956.32  298.32  3.33
2480.3  8952.70  276.15  3.08
2482.5  8971.16  309.76  3.45
2484.8  8832.66  286.41  3.24
2487.0  8762.09  261.70  2.99
2489.2  8850.00  283.95  3.21
2491.4  8753.22  297.16  3.39
2493.6  8669.20  271.73  3.13
2495.8  8662.66  300.90  3.47
2498.0  8674.13  270.22  3.12
2500.2  8694.60  247.13  2.84
2502.4  8942.16  269.36  3.01
2504.6  9089.52  269.18  2.96
2506.8  9176.65  295.50  3.22
