/*** Spectra Vista SIG Data ***/
name= RS.sig
comm= Resampled spectral data SIG file reprocesed for matching/overlap;Averaged Ref/Tar of files: RS1,RS2,RS3
data=
346.0  468.20  120.50  25.74
356.0  683.10  138.28  20.24
366.0  906.09  146.87  16.21
376.0  1249.89  151.48  12.12
386.0  1571.27  143.68  9.14
396.0  2026.07  180.95  8.93
406.0  2502.77  167.37  6.69
416.0  3165.14  199.36  6.30
426.0  3668.56  206.90  5.64
436.0  4548.65  225.13  4.95
446.0  5417.72  258.28  4.77
456.0  6302.44  273.45  4.34
466.0  7615.04  319.28  4.19
476.0  8743.20  352.55  4.03
486.0  9533.40  354.25  3.72
496.0  11257.81  401.34  3.57
506.0  12699.26  446.93  3.52
516.0  13281.41  455.85  3.43
526.0  14721.08  488.46  3.32
536.0  16749.01  560.29  3.35
546.0  18621.46  639.01  3.43
556.0  19066.94  684.77  3.59
566.0  20585.57  844.20  4.10
576.0  22670.38  1211.50  5.34
586.0  24106.47  1877.29  7.79
596.0  25247.53  2814.16  11.15
606.0  25711.34  3861.64  15.02
616.0  27649.38  5098.37  18.44
626.0  31025.14  6335.65  20.42
636.0  30881.13  7207.30  23.34
646.0  31238.37  7261.06  23.24
656.0  30360.38  6603.00  21.75
666.0  31764.82  5423.11  17.07
676.0  33416.99  5027.40  15.04
686.0  36086.51  7827.36  21.69
696.0  37161.40  15746.87  42.37
706.0  37800.45  22125.95  58.53
716.0  37597.62  25079.92  66.71
726.0  36909.99  26100.43  70.71
736.0  36510.50  26315.90  72.08
746.0  38642.98  28297.47  73.23
756.0  39260.04  28901.41  73.62
766.0  40452.13  30274.97  74.84
776.0  40956.88  30886.32  75.41
786.0  40712.49  30991.54  76.12
796.0  39541.78  29962.16  75.77
806.0  38183.08  29028.16  76.02
816.0  37991.58  28973.92  76.26
826.0  38001.34  28615.55  75.30
836.0  38898.28  28819.30  74.09
846.0  40272.93  29863.44  74.15
856.0  41435.70  30425.09  73.43
866.0  42009.41  30751.87  73.20
876.0  42227.12  30663.95  72.62
886.0  42357.46  30194.28  71.28
896.0  41812.69  29283.26  70.03
906.0  41556.83  28637.46  68.91
916.0  41043.62  27665.34  67.40
926.0  40765.22  26447.31  64.88
936.0  41670.71  25535.85  61.28
946.0  42483.47  24395.09  57.42
956.0  43315.05  22819.18  52.68
966.0  43997.52  22249.71  50.57
976.0  44695.21  22038.39  49.31
986.0  47191.67  23313.45  49.40
996.0  47061.19  23482.00  49.90
1006.0  46939.72  24009.76  51.15
1016.0  47337.20  25059.63  52.94
1026.0  47434.95  25919.06  54.64
1036.0  47300.39  26668.84  56.38
1046.0  47814.52  27757.86  58.05
1056.0  48169.66  28578.50  59.33
1066.0  48243.60  28946.76  60.00
1076.0  48081.60  28885.12  60.08
1086.0  48203.49  28658.77  59.45
1096.0  48223.42  28132.83  58.34
1106.0  48093.81  27449.89  57.08
1116.0  47754.46  26482.24  55.46
1126.0  47607.19  25089.58  52.70
1136.0  47567.70  22615.90  47.54
1146.0  47493.03  19797.20  41.68
1156.0  47323.93  18109.92  38.27
1166.0  47127.55  17458.11  37.04
1176.0  47007.28  17131.79  36.44
1186.0  47024.89  16901.45  35.94
1196.0  46427.12  16538.07  35.62
1206.0  45976.77  16410.24  35.69
1216.0  45638.29  16487.88  36.13
1226.0  45257.55  16646.16  36.78
1236.0  44986.64  16796.53  37.34
1246.0  44665.03  16883.42  37.80
1256.0  44348.18  16915.85  38.14
1266.0  44041.29  16857.67  38.28
1276.0  44122.33  16788.11  38.05
1286.0  44180.48  16535.18  37.43
1296.0  43940.70  15983.10  36.37
1306.0  43443.23  15095.29  34.75
1316.0  42852.87  14016.87  32.71
1326.0  42279.85  12799.59  30.27
1336.0  41687.98  11570.94  27.76
1346.0  41087.70  10496.46  25.55
1356.0  40136.77  9499.46  23.67
1366.0  39573.10  8635.60  21.82
1376.0  39448.29  7563.87  19.17
1386.0  39137.19  5945.63  15.19
1396.0  38705.17  4390.71  11.34
1406.0  38283.65  3379.34  8.83
1416.0  38247.12  2873.93  7.51
1426.0  38141.65  2631.20  6.90
1436.0  37993.55  2519.83  6.63
1446.0  37807.56  2465.56  6.52
1456.0  37564.66  2447.79  6.52
1466.0  37374.67  2484.66  6.65
1476.0  37032.66  2583.14  6.98
1486.0  36783.36  2780.16  7.56
1496.0  36446.95  3029.27  8.31
1506.0  36128.16  3131.90  8.67
1516.0  35703.58  3241.12  9.08
1526.0  35355.47  3426.26  9.69
1536.0  35069.58  3632.24  10.36
1546.0  34708.16  3821.15  11.01
1556.0  34457.36  3998.93  11.61
1566.0  34164.86  4170.72  12.21
1576.0  33714.29  4353.59  12.91
1586.0  33359.51  4478.92  13.43
1596.0  32961.11  4566.86  13.86
1606.0  32571.18  4662.64  14.32
1616.0  32156.21  4754.10  14.78
1626.0  31771.93  4834.07  15.21
1636.0  31326.06  4886.53  15.60
1646.0  30840.36  4872.49  15.80
1656.0  30342.57  4828.96  15.91
1666.0  29873.41  4775.66  15.99
1676.0  29453.55  4705.95  15.98
1686.0  29411.45  4653.68  15.82
1696.0  29052.01  4528.28  15.59
1706.0  28613.36  4353.30  15.21
1716.0  27944.47  4120.32  14.74
1726.0  27523.58  3927.49  14.27
1736.0  27167.55  3797.57  13.98
1746.0  26819.99  3652.54  13.62
1756.0  26352.17  3458.30  13.12
1766.0  25950.76  3302.15  12.72
1776.0  25733.96  3214.45  12.49
1786.0  25468.85  3133.87  12.30
1796.0  25144.26  3073.88  12.22
1806.0  24846.88  3044.03  12.25
1816.0  24492.53  3009.69  12.29
1826.0  24049.65  2948.91  12.26
1836.0  23447.37  2850.32  12.16
1846.0  23057.19  2768.14  12.01
1856.0  22644.78  2621.87  11.58
1866.0  22558.57  2243.95  9.95
1876.0  22322.63  1724.35  7.72
1886.0  22034.63  1339.35  6.08
1896.0  21514.98  1154.40  5.37
1906.0  20193.02  652.78  3.23
1916.0  19960.67  601.65  3.01
1926.0  19718.96  595.95  3.02
1936.0  19579.29  585.55  2.99
1946.0  19560.97  592.67  3.03
1956.0  19388.55  598.78  3.09
1966.0  19354.23  607.72  3.14
1976.0  19201.04  627.92  3.27
1986.0  18944.59  630.76  3.33
1996.0  18673.01  669.46  3.59
2006.0  18514.12  699.75  3.78
2016.0  18215.64  710.49  3.90
2026.0  17909.22  726.98  4.06
2036.0  17652.06  755.28  4.28
2046.0  17374.82  765.16  4.40
2056.0  17064.26  762.06  4.47
2066.0  16791.57  773.95  4.61
2076.0  16545.25  797.38  4.82
2086.0  16394.52  819.47  5.00
2096.0  16100.21  824.20  5.12
2106.0  15806.06  831.87  5.26
2116.0  15736.14  869.27  5.52
2126.0  15554.85  886.75  5.70
2136.0  15258.51  882.72  5.79
2146.0  14853.45  882.99  5.94
2156.0  14604.38  900.59  6.17
2166.0  14366.07  887.81  6.18
2176.0  14128.44  901.07  6.38
2186.0  13980.19  913.67  6.54
2196.0  13852.76  905.17  6.53
2206.0  13790.00  906.12  6.57
2216.0  13655.61  902.02  6.61
2226.0  13540.23  887.06  6.55
2236.0  13404.39  870.15  6.49
2246.0  13162.51  828.39  6.29
2256.0  12980.74  765.44  5.90
2266.0  12834.46  739.15  5.76
2276.0  12713.52  704.53  5.54
2286.0  12602.64  663.65  5.27
2296.0  12501.79  634.76  5.08
2306.0  12136.32  574.61  4.73
2316.0  11736.06  552.21  4.71
2326.0  11720.29  547.98  4.68
2336.0  11665.36  532.20  4.56
2346.0  11501.61  516.49  4.49
2356.0  11241.81  492.82  4.38
2366.0  11163.72  482.32  4.32
2376.0  10906.36  462.68  4.24
2386.0  10752.86  423.69  3.94
2396.0  10611.07  448.21  4.22
2406.0  10442.46  401.48  3.84
2416.0  10196.59  386.75  3.79
2426.0  10071.76  344.09  3.42
2436.0  9871.11  359.27  3.64
2446.0  9707.92  328.32  3.38
2456.0  9553.15  338.45  3.54
2466.0  9291.20  289.58  3.12
2476.0  9038.48  326.06  3.61
2486.0  8794.17  272.93  3.10
2496.0  8663.70  298.11  3.44
2506.0  9144.96  285.93  3.13
