/*** Spectra Vista SIG Data ***/
name= RS.sig
comm= Averaged Ref/Tar of files: RD2S7,RD2S8,RD2S9
data=
346.4  509.60  128.78  25.27
347.9  549.06  131.57  23.96
349.5  608.40  136.14  22.38
351.1  655.20  131.66  20.10
352.6  708.40  139.04  19.63
354.2  752.68  143.34  19.04
355.7  818.30  151.43  18.51
357.3  873.81  161.24  18.45
358.8  891.23  155.76  17.48
360.4  967.31  162.51  16.80
361.9  1009.93  161.24  15.97
363.5  1059.53  160.32  15.13
365.1  1102.67  168.75  15.30
366.6  1156.59  171.01  14.79
368.2  1218.77  165.08  13.54
369.7  1306.00  164.56  12.60
371.3  1379.56  172.64  12.51
372.8  1457.48  169.21  11.61
374.4  1528.58  177.56  11.62
375.9  1575.56  176.09  11.18
377.4  1632.76  176.61  10.82
379.0  1683.54  179.81  10.68
380.5  1741.87  176.45  10.13
382.1  1805.51  175.53  9.72
383.6  1862.60  174.35  9.36
385.2  1949.75  172.88  8.87
386.7  2036.04  178.60  8.77
388.3  2135.96  179.36  8.40
389.8  2212.47  187.12  8.46
391.3  2314.34  190.59  8.24
392.9  2392.65  198.39  8.29
394.4  2474.90  201.59  8.15
395.9  2552.82  212.06  8.31
397.5  2664.75  219.75  8.25
399.0  2774.82  215.37  7.76
400.6  2852.64  208.66  7.31
402.1  2910.24  201.07  6.91
403.6  2965.71  196.12  6.61
405.1  3036.77  195.37  6.43
406.7  3133.76  202.50  6.46
408.2  3234.33  203.59  6.29
409.7  3330.88  206.90  6.21
411.3  3437.91  213.89  6.22
412.8  3528.93  223.34  6.33
414.3  3634.54  227.94  6.27
415.8  3740.00  235.83  6.31
417.4  3868.37  238.41  6.16
418.9  3954.39  241.95  6.12
420.4  4037.85  242.27  6.00
421.9  4106.74  246.36  6.00
423.5  4196.00  245.95  5.86
425.0  4263.51  245.65  5.76
426.5  4364.50  244.96  5.61
428.0  4488.82  246.64  5.49
429.5  4615.58  248.85  5.39
431.1  4756.23  253.68  5.33
432.6  4917.76  260.82  5.30
434.1  5064.68  264.43  5.22
435.6  5199.35  274.38  5.28
437.1  5333.25  279.96  5.25
438.6  5454.84  284.27  5.21
440.1  5584.70  292.55  5.24
441.6  5717.14  300.04  5.25
443.1  5852.25  301.05  5.14
444.7  5982.11  315.92  5.28
446.2  6104.50  317.57  5.20
447.7  6213.60  328.66  5.29
449.2  6315.84  330.26  5.23
450.7  6414.72  327.53  5.11
452.2  6543.45  328.28  5.02
453.7  6682.65  329.97  4.94
455.2  6842.54  336.62  4.92
456.7  7029.44  344.49  4.90
458.2  7231.16  352.18  4.87
459.7  7428.75  364.00  4.90
461.2  7633.63  371.95  4.87
462.7  7815.14  381.21  4.88
464.2  8000.76  391.38  4.89
465.7  8191.53  406.04  4.96
467.2  8352.58  408.81  4.89
468.7  8552.00  420.27  4.91
470.2  8711.17  438.83  5.04
471.7  8854.00  456.32  5.15
473.2  9050.37  458.73  5.07
474.6  9252.88  455.85  4.93
476.1  9378.88  455.31  4.85
477.6  9464.51  457.99  4.84
479.1  9567.20  461.40  4.82
480.6  9658.16  462.94  4.79
482.1  9797.74  467.18  4.77
483.6  9963.22  471.00  4.73
485.1  10140.49  477.53  4.71
486.6  10356.19  486.67  4.70
488.0  10562.50  497.25  4.71
489.5  10784.97  511.26  4.74
491.0  10998.86  520.09  4.73
492.5  11224.98  533.57  4.75
494.0  11462.99  546.09  4.76
495.4  11663.85  558.36  4.79
496.9  11870.36  571.59  4.82
498.4  12074.30  583.86  4.84
499.9  12278.41  590.71  4.81
501.4  12476.75  603.19  4.83
502.8  12664.51  614.41  4.85
504.3  12846.60  624.06  4.86
505.8  13033.73  634.76  4.87
507.2  13172.68  641.45  4.87
508.7  13289.99  644.98  4.85
510.2  13412.81  648.65  4.84
511.6  13494.72  652.46  4.83
513.1  13630.43  657.24  4.82
514.6  13795.53  658.34  4.77
516.0  13946.28  660.30  4.73
517.5  14135.83  662.65  4.69
519.0  14365.19  671.88  4.68
520.5  14579.60  680.82  4.67
521.9  14828.55  688.16  4.64
523.4  15093.49  702.12  4.65
524.8  15349.14  714.31  4.65
526.3  15633.70  730.94  4.68
527.8  15915.89  746.30  4.69
529.2  16178.21  760.03  4.70
530.7  16455.24  775.09  4.71
532.1  16698.15  785.92  4.71
533.6  16994.07  802.24  4.72
535.0  17295.55  820.74  4.75
536.5  17581.25  839.22  4.77
538.0  17895.84  858.85  4.80
539.4  18160.64  877.77  4.83
540.9  18488.86  896.88  4.85
542.3  18738.28  910.46  4.86
543.8  18940.29  917.63  4.84
545.2  19020.35  916.77  4.82
546.6  19057.19  920.83  4.83
548.1  19121.11  921.49  4.82
549.5  19166.91  921.27  4.81
551.0  19217.70  923.44  4.81
552.4  19311.21  921.03  4.77
553.9  19371.38  924.66  4.77
555.3  19461.20  927.69  4.77
556.8  19596.88  928.26  4.74
558.2  19743.75  932.29  4.72
559.6  19902.71  939.45  4.72
561.1  20117.50  950.52  4.72
562.5  20332.52  962.30  4.73
564.0  20611.34  975.78  4.73
565.4  20865.50  992.25  4.76
566.8  21177.73  1011.19  4.77
568.3  21463.05  1030.04  4.80
569.7  21776.78  1051.89  4.83
571.1  22080.65  1074.05  4.86
572.6  22373.82  1098.03  4.91
574.0  22675.95  1121.56  4.95
575.4  22958.44  1144.35  4.98
576.9  23231.09  1170.07  5.04
578.3  23477.03  1197.39  5.10
579.7  23721.74  1224.30  5.16
581.1  23920.49  1252.58  5.24
582.6  24132.47  1286.92  5.33
584.0  24305.80  1317.65  5.42
585.4  24549.94  1360.29  5.54
586.8  24845.17  1399.41  5.63
588.3  25201.80  1444.17  5.73
589.7  25517.70  1485.27  5.82
591.1  25735.55  1521.56  5.91
592.5  25883.00  1559.39  6.02
594.0  25998.42  1596.11  6.14
595.4  26057.54  1633.47  6.27
596.8  26115.38  1675.75  6.42
598.2  26174.55  1719.58  6.57
599.6  26202.06  1769.78  6.75
601.0  26298.70  1827.66  6.95
602.4  26372.18  1888.43  7.16
603.9  26501.77  1957.13  7.38
605.3  26625.41  2030.93  7.63
606.7  26749.80  2105.58  7.87
608.1  26941.18  2199.09  8.16
609.5  27151.69  2296.52  8.46
610.9  27387.74  2405.81  8.78
612.3  27589.20  2525.03  9.15
613.7  27871.80  2653.68  9.52
615.1  28061.64  2781.59  9.91
616.5  28235.16  2916.66  10.33
617.9  28534.12  3075.73  10.78
619.3  28808.15  3245.74  11.27
620.7  29149.14  3436.94  11.79
622.1  29527.66  3582.86  12.13
623.5  29951.83  3713.21  12.40
624.9  30436.35  3849.81  12.65
626.3  30757.12  3985.88  12.96
627.7  30461.43  4059.10  13.33
629.1  30188.34  4164.96  13.80
630.5  30083.03  4318.25  14.35
631.9  30076.12  4515.43  15.01
633.3  30078.24  4730.77  15.73
634.7  30183.54  4947.18  16.39
636.1  30268.81  5131.18  16.95
637.5  30374.19  5286.83  17.41
638.9  30520.15  5455.11  17.87
640.2  30643.60  5605.76  18.29
641.6  30733.56  5727.70  18.64
643.0  30777.50  5828.07  18.94
644.4  30869.16  5918.12  19.17
645.8  30855.38  5986.72  19.40
647.2  31023.20  6093.82  19.64
648.5  31185.15  6197.08  19.87
649.9  31117.13  6285.62  20.20
651.3  31099.80  6395.23  20.56
652.7  31059.00  6485.50  20.88
654.1  30961.56  6411.66  20.71
655.5  30829.51  6279.21  20.37
656.8  30685.81  6155.48  20.06
658.2  30861.69  6107.37  19.79
659.6  31181.89  6089.66  19.53
660.9  31452.29  6063.75  19.28
662.3  31767.46  6023.59  18.96
663.7  32102.70  5968.06  18.59
665.0  32334.98  5893.96  18.23
666.4  32575.38  5830.18  17.90
667.8  32873.84  5792.29  17.62
669.1  33084.01  5746.38  17.37
670.5  33327.47  5730.30  17.19
671.9  33513.12  5718.32  17.06
673.2  33742.50  5746.72  17.03
674.6  33950.66  5794.48  17.07
676.0  34219.05  5887.56  17.21
677.3  34494.18  6014.81  17.44
678.7  34767.13  6197.21  17.82
680.0  35103.31  6464.55  18.42
681.4  35420.13  6830.57  19.28
682.8  35763.00  7303.58  20.42
684.1  36073.44  7917.00  21.95
685.5  36318.59  8653.09  23.83
686.8  36607.26  9517.49  26.00
688.2  36844.31  10475.72  28.43
689.5  36898.97  11464.74  31.07
690.9  36950.15  12505.04  33.84
692.2  37008.15  13549.51  36.61
693.6  37024.93  14612.28  39.47
694.9  37005.38  15600.73  42.16
696.2  37027.13  16564.92  44.74
697.6  37047.86  17467.79  47.15
698.9  37049.76  18334.98  49.49
700.3  37075.62  19145.77  51.64
701.6  37124.24  19909.77  53.63
703.0  37178.40  20625.64  55.48
704.3  37172.20  21239.94  57.14
705.6  37157.22  21811.01  58.70
707.0  37168.46  22341.18  60.11
708.3  37076.04  22769.01  61.41
709.6  36967.81  23157.45  62.64
711.0  36867.73  23484.14  63.70
712.3  36770.31  23777.94  64.67
713.6  36755.88  24094.38  65.55
714.9  36684.64  24369.53  66.43
716.3  36701.44  24664.50  67.20
717.6  36734.04  24961.23  67.95
718.9  36680.73  25166.15  68.61
720.2  36496.25  25271.56  69.24
721.6  36394.28  25384.10  69.75
722.9  36240.12  25485.00  70.32
724.2  36067.30  25519.95  70.76
725.5  35963.70  25595.31  71.17
726.8  35833.96  25629.50  71.52
728.1  35810.80  25697.65  71.76
729.5  35779.10  25754.87  71.98
730.8  35779.13  25823.11  72.17
732.1  35704.25  25867.31  72.45
733.4  35690.92  25919.59  72.62
734.7  35685.89  25954.97  72.73
736.0  35729.66  26041.85  72.89
737.3  35717.44  26101.55  73.08
738.6  35830.21  26248.59  73.26
739.9  36014.88  26476.16  73.51
741.2  36161.58  26649.81  73.70
742.5  36363.94  26925.66  74.04
743.8  36737.66  27338.18  74.41
745.1  37309.08  27904.70  74.79
746.4  37926.98  28512.01  75.18
747.7  38536.99  29108.64  75.53
749.0  39118.92  29676.59  75.86
750.3  39493.02  29987.99  75.93
751.6  39440.80  29947.03  75.93
752.9  39084.79  29718.53  76.04
754.2  38731.25  29467.30  76.08
755.4  38386.91  29204.60  76.08
756.7  38244.09  29183.83  76.31
758.0  38261.36  29295.01  76.57
759.3  38489.95  29576.07  76.84
760.6  38786.44  29924.87  77.15
761.9  39062.28  30254.61  77.45
763.1  39197.21  30449.46  77.68
764.4  39371.54  30690.63  77.95
765.7  39490.75  30869.80  78.17
767.0  39577.16  31014.55  78.36
768.2  39644.64  31145.18  78.56
769.5  39697.68  31260.56  78.75
770.8  39836.32  31436.64  78.91
772.0  39856.44  31509.85  79.06
773.3  39898.95  31622.02  79.26
774.6  39978.84  31752.07  79.42
775.8  40054.79  31844.12  79.50
777.1  40085.96  31890.56  79.56
778.4  40059.57  31880.19  79.58
779.6  39999.54  31904.13  79.76
780.9  39948.00  31900.67  79.86
782.1  39837.20  31829.71  79.90
783.4  39802.88  31872.26  80.08
784.6  39851.08  31933.22  80.13
785.9  40095.40  32231.97  80.39
787.1  40531.58  32705.98  80.69
788.4  40834.19  32989.78  80.79
789.6  40796.10  32856.38  80.54
790.9  40479.11  32486.18  80.25
792.1  40128.24  32166.36  80.16
793.4  39739.41  31859.74  80.17
794.6  39507.48  31642.57  80.09
795.8  39314.07  31476.90  80.07
797.1  39097.95  31299.10  80.05
798.3  38940.83  31190.17  80.10
799.5  38821.14  31137.56  80.21
800.8  38733.05  31056.01  80.18
802.0  38591.76  30966.22  80.24
803.2  38469.72  30854.27  80.20
804.5  38377.94  30784.51  80.21
805.7  38264.87  30699.18  80.23
806.9  38181.95  30609.51  80.17
808.1  38074.65  30564.52  80.28
809.4  38033.33  30533.90  80.28
810.6  37951.55  30495.77  80.35
811.8  37942.61  30505.89  80.40
813.0  37965.80  30542.35  80.45
814.2  37975.49  30580.40  80.53
815.4  38039.93  30655.59  80.59
816.6  38032.65  30675.16  80.65
817.9  38050.16  30685.76  80.65
819.1  37997.24  30606.97  80.55
820.3  37865.18  30489.80  80.52
821.5  37787.61  30389.67  80.42
822.7  37714.41  30347.32  80.47
823.9  37704.87  30328.99  80.44
825.1  37688.07  30301.84  80.40
826.3  37716.38  30281.06  80.29
827.5  37726.06  30283.62  80.27
828.7  37779.60  30270.04  80.12
829.9  37796.29  30248.76  80.03
831.0  37849.02  30284.88  80.01
832.2  37913.75  30317.13  79.96
833.4  37950.44  30353.99  79.98
834.6  37978.13  30396.10  80.04
835.8  38031.53  30444.59  80.05
837.0  38073.26  30525.51  80.18
838.1  38178.69  30649.10  80.28
839.3  38239.24  30704.54  80.30
840.5  38296.24  30802.15  80.43
841.7  38381.58  30937.20  80.60
842.9  38485.06  31078.87  80.76
844.0  38543.94  31186.72  80.91
845.2  38626.85  31319.45  81.08
846.4  38724.98  31415.33  81.12
847.5  38888.12  31582.14  81.21
848.7  39002.30  31717.53  81.32
849.9  39141.74  31826.57  81.31
851.0  39173.78  31848.88  81.30
852.2  39245.07  31872.17  81.21
853.3  39202.67  31847.05  81.24
854.5  39188.19  31839.53  81.25
855.6  39170.88  31850.66  81.31
856.8  39193.80  31894.11  81.38
857.9  39192.81  31891.66  81.37
859.1  39326.60  31968.65  81.29
860.2  39300.24  31995.76  81.41
861.4  39344.78  32018.76  81.38
862.5  39384.29  32046.21  81.37
863.7  39467.66  32102.46  81.34
864.8  39454.45  32116.18  81.40
865.9  39398.65  32077.39  81.42
867.1  39448.45  32099.25  81.37
868.2  39441.53  32092.28  81.37
869.3  39465.67  32096.25  81.33
870.5  39438.89  32031.52  81.22
871.6  39473.54  32047.67  81.19
872.7  39541.37  32097.74  81.18
873.9  39548.50  32109.88  81.19
875.0  39546.05  32079.70  81.12
876.1  39583.15  32053.70  80.98
877.2  39616.79  32048.50  80.90
878.3  39601.98  31993.02  80.79
879.4  39662.11  31999.73  80.68
880.5  39702.60  31998.89  80.60
881.7  39698.10  31937.34  80.45
882.8  39775.46  31936.09  80.29
883.9  39785.32  31895.69  80.17
885.0  39766.55  31784.84  79.93
886.1  39735.85  31698.01  79.77
887.2  39664.66  31520.70  79.47
888.3  39567.00  31390.12  79.33
889.4  39535.02  31259.42  79.07
890.5  39459.91  31155.50  78.95
891.6  39428.33  31062.36  78.78
892.7  39429.01  31007.29  78.64
893.8  39492.50  31001.35  78.50
894.9  39505.51  30977.18  78.41
896.0  39527.49  30914.72  78.21
897.0  39487.40  30868.56  78.17
898.1  39490.45  30839.46  78.09
899.2  39536.22  30794.91  77.89
900.3  39503.73  30683.39  77.67
901.4  39454.09  30610.47  77.59
902.4  39461.49  30583.05  77.50
903.5  39418.10  30482.95  77.33
904.6  39431.18  30449.84  77.22
905.7  39454.64  30398.24  77.05
906.7  39397.52  30341.90  77.01
907.8  39514.80  30318.57  76.73
908.9  39443.33  30220.45  76.62
909.9  39411.21  30129.35  76.45
911.0  39357.50  30030.57  76.30
912.1  39280.99  29909.87  76.14
913.1  39233.48  29801.70  75.96
914.2  39173.92  29676.94  75.76
915.2  39170.79  29601.70  75.57
916.3  39094.50  29524.89  75.52
917.3  39076.47  29434.31  75.32
918.4  39031.30  29289.08  75.04
919.4  39022.48  29173.61  74.76
920.5  39026.74  29081.70  74.52
921.5  39018.63  28980.10  74.27
922.6  38959.72  28832.72  74.01
923.6  39026.05  28758.52  73.69
924.7  39022.50  28674.19  73.48
925.7  39030.84  28552.03  73.15
926.7  39009.32  28431.32  72.88
927.8  39032.57  28298.05  72.50
928.8  39142.62  28270.42  72.22
929.9  39330.10  28210.12  71.73
930.9  39447.46  28203.51  71.50
931.9  39602.61  28207.73  71.23
932.9  39864.58  28257.28  70.88
934.0  39909.81  28150.91  70.54
935.0  39942.68  28024.28  70.16
936.0  39929.50  27855.89  69.76
937.0  39883.94  27693.94  69.44
938.1  39848.52  27532.43  69.09
939.1  39753.89  27375.06  68.86
940.1  39867.76  27256.73  68.37
941.1  39995.43  27286.13  68.22
942.1  40229.45  27257.46  67.75
943.1  40393.76  27209.88  67.36
944.1  40552.56  27204.75  67.09
945.2  40570.32  27058.60  66.70
946.2  40685.67  26933.81  66.20
947.2  40740.25  26820.00  65.83
948.2  40874.09  26713.19  65.35
949.2  40954.06  26561.90  64.86
950.2  41026.00  26419.62  64.40
951.2  41012.16  26247.12  64.00
952.2  41170.94  26092.36  63.38
953.2  41257.13  26000.86  63.02
954.2  41395.95  25909.91  62.59
955.2  41401.94  25741.92  62.18
956.2  41391.82  25556.79  61.74
957.2  41524.97  25445.02  61.28
958.2  41486.28  25375.02  61.16
959.2  41625.00  25314.11  60.81
960.1  41647.94  25233.85  60.59
961.1  41725.78  25216.50  60.43
962.1  41752.50  25166.09  60.27
963.1  41720.60  25128.44  60.23
964.1  41837.60  25184.12  60.19
965.1  41932.95  25201.97  60.10
966.1  41961.44  25188.67  60.03
967.0  42058.17  25170.17  59.85
968.0  42094.69  25180.59  59.82
969.0  42115.20  25141.43  59.70
970.0  42092.26  25201.65  59.87
971.0  42266.18  25191.10  59.60
971.9  42275.33  25250.26  59.73
972.9  42388.85  25234.15  59.53
973.9  42492.13  25189.74  59.28
974.9  42580.28  25227.67  59.25
975.8  42630.52  25182.85  59.07
976.8  42806.43  25207.90  58.89
977.8  42848.34  25260.87  58.95
978.8  42868.95  25245.81  58.89
979.7  43050.58  25351.19  58.89
980.7  43264.32  25427.07  58.77
981.7  43347.07  25482.16  58.79
982.6  43545.07  25741.36  59.11
983.6  44003.55  26019.80  59.13
984.6  44377.46  26230.00  59.11
985.5  44900.28  26578.03  59.19
986.5  45688.01  27093.99  59.30
987.5  46285.78  27777.57  60.01
988.4  47161.40  28207.92  59.81
989.4  47812.76  28750.08  60.13
990.4  48753.98  29335.10  60.17
991.3  50274.64  30181.83  60.03
992.3  50864.45  30675.18  60.31
993.2  51610.85  31647.18  61.32
994.2  53891.66  32191.63  59.73
995.2  55394.96  32556.19  58.77
996.1  55625.12  33140.75  59.58
997.1  56348.70  32680.07  58.00
998.0  54473.40  32044.52  58.83
999.0  55283.87  32351.31  58.52
1000.0  55127.21  32101.28  58.23
1000.9  55875.58  32817.07  58.73
1001.9  56355.47  32286.14  57.29
1002.8  54776.67  32294.54  58.96
1003.8  57170.04  32832.77  57.43
1004.8  54763.20  32477.62  59.31
961.5  49984.08  27360.72  54.74
965.5  48959.90  27180.99  55.52
969.5  47367.08  26701.71  56.37
973.4  45664.01  25949.90  56.83
977.4  44063.24  25221.18  57.24
981.4  43484.76  24908.56  57.28
985.3  43466.28  24925.91  57.35
989.3  43739.41  25170.76  57.55
993.3  44088.36  25468.56  57.77
997.2  44246.85  25700.22  58.08
1001.2  44240.69  25920.18  58.59
1005.2  44147.66  26158.89  59.25
1009.1  44170.72  26508.31  60.01
1013.1  44298.35  26944.36  60.82
1017.1  44409.64  27367.26  61.62
1021.0  44418.65  27717.27  62.40
1025.0  44431.92  28050.40  63.13
1029.0  44310.95  28286.16  63.84
1032.9  44196.36  28538.60  64.57
1036.9  44214.81  28872.77  65.30
1040.9  44317.48  29268.99  66.04
1044.8  44471.57  29720.96  66.83
1048.8  44586.22  30125.29  67.57
1052.7  44660.98  30462.07  68.21
1056.7  44664.90  30706.03  68.75
1060.7  44652.74  30889.77  69.18
1064.6  44643.90  31030.57  69.51
1068.6  44545.19  31052.99  69.71
1072.5  44448.63  31031.05  69.81
1076.5  44390.31  30999.75  69.83
1080.4  44363.13  30942.44  69.75
1084.4  44428.99  30906.75  69.56
1088.3  44526.89  30838.71  69.26
1092.3  44515.11  30634.19  68.82
1096.2  44485.25  30423.85  68.39
1100.2  44489.30  30244.23  67.98
1104.1  44387.15  29957.16  67.49
1108.1  44344.78  29692.53  66.96
1112.0  44255.25  29370.00  66.37
1116.0  44078.91  28948.47  65.67
1119.9  43920.46  28477.59  64.84
1123.9  43980.05  28042.34  63.76
1127.8  43933.44  27370.24  62.30
1131.8  43891.20  26493.47  60.36
1135.7  43904.71  25475.34  58.02
1139.6  43873.24  24343.28  55.49
1143.6  43814.30  23243.53  53.05
1147.5  43764.96  22313.39  50.98
1151.4  43600.54  21532.46  49.39
1155.4  43567.43  21036.05  48.28
1159.3  43548.37  20716.72  47.57
1163.2  43379.84  20425.86  47.09
1167.2  43333.14  20267.68  46.77
1171.1  43320.14  20159.50  46.54
1175.0  43247.45  20036.72  46.33
1179.0  43203.54  19928.17  46.13
1182.9  43281.26  19872.94  45.92
1186.8  43262.79  19785.51  45.73
1190.7  43059.97  19620.08  45.56
1194.7  42822.73  19454.97  45.43
1198.6  42602.18  19347.41  45.41
1202.5  42456.57  19289.44  45.43
1206.4  42335.53  19267.70  45.51
1210.3  42230.32  19297.14  45.69
1214.2  42126.94  19346.91  45.93
1218.2  41984.08  19392.43  46.19
1222.1  41854.50  19456.78  46.49
1226.0  41760.57  19546.34  46.81
1229.9  41673.90  19635.44  47.12
1233.8  41576.55  19700.25  47.38
1237.7  41528.30  19772.00  47.61
1241.6  41457.25  19831.71  47.84
1245.5  41309.15  19849.98  48.05
1249.4  41175.26  19861.84  48.24
1253.3  41058.30  19870.53  48.40
1257.2  40978.33  19896.64  48.55
1261.1  40873.57  19895.87  48.68
1265.0  40757.89  19864.73  48.74
1268.9  40587.74  19778.88  48.73
1272.8  40626.75  19776.15  48.68
1276.7  40780.33  19812.90  48.58
1280.6  40842.56  19777.93  48.42
1284.5  40748.73  19636.39  48.19
1288.4  40697.88  19491.62  47.89
1292.3  40562.50  19279.33  47.53
1296.2  40411.46  19025.14  47.08
1300.1  40239.63  18722.79  46.53
1303.9  40009.73  18351.23  45.87
1307.8  39785.54  17954.79  45.13
1311.7  39554.21  17529.84  44.32
1315.6  39326.35  17079.77  43.43
1319.5  39086.11  16594.25  42.46
1323.3  38870.69  16096.41  41.41
1327.2  38681.53  15599.18  40.33
1331.1  38474.56  15092.87  39.23
1335.0  38203.08  14571.45  38.14
1338.8  38009.09  14108.40  37.12
1342.7  37876.27  13691.39  36.15
1346.5  37598.34  13242.76  35.22
1350.4  37400.07  12843.47  34.34
1354.3  37094.65  12419.93  33.48
1358.1  36731.71  11991.70  32.65
1362.0  36487.36  11617.18  31.84
1365.8  36370.47  11278.14  31.01
1369.7  36432.94  10954.98  30.07
1373.5  36366.82  10503.11  28.88
1377.4  36166.21  9886.22  27.34
1381.2  35990.96  9157.80  25.44
1385.1  35936.27  8430.23  23.46
1389.0  35813.45  7701.38  21.50
1392.8  35598.92  6968.39  19.57
1396.6  35460.61  6306.78  17.79
1400.5  35253.63  5742.35  16.29
1404.3  35072.57  5297.37  15.10
1408.2  35016.72  4960.93  14.17
1412.0  34945.02  4694.29  13.43
1415.8  34962.39  4501.09  12.87
1419.6  34891.95  4350.55  12.47
1423.5  34842.23  4236.65  12.16
1427.3  34796.45  4149.95  11.93
1431.1  34758.75  4088.90  11.76
1434.9  34669.05  4033.51  11.63
1438.8  34606.94  3998.78  11.55
1442.6  34573.84  3982.84  11.52
1446.4  34441.31  3958.45  11.49
1450.2  34332.12  3942.60  11.48
1454.0  34220.52  3929.20  11.48
1457.8  34188.19  3935.32  11.51
1461.6  34155.00  3956.67  11.58
1465.4  34045.70  3978.68  11.69
1469.2  33870.20  4002.49  11.82
1473.0  33726.92  4043.95  11.99
1476.8  33664.28  4114.83  12.22
1480.7  33601.58  4201.72  12.50
1484.4  33488.64  4288.68  12.81
1488.2  33386.04  4392.04  13.16
1492.0  33257.25  4506.31  13.55
1495.8  33142.20  4615.22  13.93
1499.6  33034.11  4704.62  14.24
1503.4  32933.47  4751.41  14.43
1507.2  32852.74  4766.07  14.51
1510.9  32722.34  4803.15  14.68
1514.7  32573.11  4880.68  14.98
1518.5  32453.90  4986.87  15.37
1522.3  32317.90  5088.61  15.75
1526.0  32200.64  5180.26  16.09
1529.8  32127.61  5276.76  16.42
1533.6  32011.66  5366.35  16.76
1537.3  31894.88  5451.87  17.09
1541.1  31782.08  5538.12  17.43
1544.8  31651.20  5623.20  17.77
1548.6  31528.46  5705.49  18.10
1552.4  31450.00  5791.94  18.42
1556.1  31366.15  5859.51  18.68
1559.9  31270.43  5914.78  18.91
1563.6  31150.17  5988.43  19.22
1567.3  31046.10  6077.77  19.58
1571.1  30855.35  6142.73  19.91
1574.8  30723.08  6222.91  20.25
1578.6  30633.26  6301.14  20.57
1582.3  30519.48  6349.96  20.81
1586.0  30400.45  6394.13  21.03
1589.8  30269.89  6435.25  21.26
1593.5  30123.48  6469.39  21.48
1597.2  29998.09  6509.91  21.70
1600.9  29883.71  6552.18  21.93
1604.7  29753.95  6593.03  22.16
1608.4  29639.51  6632.54  22.38
1612.1  29489.62  6663.52  22.60
1615.8  29365.23  6700.71  22.82
1619.5  29298.37  6748.80  23.03
1623.2  29161.12  6777.71  23.24
1626.9  29003.45  6794.52  23.43
1630.6  28846.40  6817.14  23.63
1634.3  28721.00  6838.10  23.81
1638.0  28599.28  6835.99  23.90
1641.7  28456.49  6829.69  24.00
1645.4  28299.47  6814.92  24.08
1649.1  28138.66  6788.23  24.12
1652.8  28008.70  6763.01  24.15
1656.4  27859.80  6733.57  24.17
1660.1  27720.43  6700.99  24.17
1663.8  27551.22  6662.60  24.18
1667.5  27406.07  6638.50  24.22
1671.1  27282.14  6608.55  24.22
1674.8  27100.13  6555.73  24.19
1678.5  27060.12  6534.25  24.15
1682.1  27085.37  6508.76  24.03
1685.8  27087.74  6484.87  23.94
1689.5  26985.46  6439.18  23.86
1693.1  26859.21  6372.14  23.72
1696.8  26718.75  6305.63  23.60
1700.4  26575.97  6238.46  23.47
1704.0  26457.91  6163.39  23.30
1707.7  26210.69  6046.42  23.07
1711.3  25940.59  5926.82  22.85
1715.0  25755.85  5826.87  22.62
1718.6  25603.66  5732.03  22.39
1722.2  25471.82  5649.97  22.18
1725.9  25346.15  5569.20  21.97
1729.5  25225.17  5495.54  21.79
1733.1  25122.33  5445.73  21.68
1736.7  25028.77  5406.55  21.60
1740.3  24869.68  5345.64  21.49
1744.0  24796.20  5287.17  21.32
1747.5  24670.34  5208.40  21.11
1751.2  24460.97  5113.26  20.90
1754.8  24300.77  5026.79  20.69
1758.4  24168.99  4950.77  20.48
1762.0  24004.67  4871.97  20.30
1765.5  23878.06  4813.83  20.16
1769.1  23824.80  4785.60  20.09
1772.7  23745.17  4754.04  20.02
1776.3  23631.64  4712.03  19.94
1779.9  23517.13  4669.42  19.86
1783.5  23453.36  4642.56  19.79
1787.0  23338.16  4608.99  19.75
1790.6  23194.11  4575.88  19.73
1794.2  23099.94  4561.20  19.75
1797.8  23019.59  4546.10  19.75
1801.3  22943.45  4535.21  19.77
1804.9  22821.75  4519.38  19.80
1808.4  22758.56  4511.50  19.82
1812.0  22651.25  4490.61  19.83
1815.5  22537.46  4473.02  19.85
1819.1  22377.91  4446.78  19.87
1822.6  22230.86  4413.65  19.85
1826.2  22108.08  4393.24  19.87
1829.7  21962.63  4365.91  19.88
1833.2  21769.52  4320.77  19.85
1836.8  21568.82  4265.78  19.78
1840.3  21408.35  4225.61  19.74
1843.8  21283.15  4208.61  19.77
1847.3  21175.36  4193.75  19.80
1850.8  21026.88  4162.37  19.80
1854.3  20829.70  4106.26  19.71
1857.8  20716.80  3998.80  19.30
1861.3  20743.52  3858.34  18.60
1864.8  20771.48  3659.39  17.62
1868.3  20668.83  3383.60  16.37
1871.8  20505.60  3095.04  15.09
1875.3  20412.67  2841.33  13.92
1878.8  20386.82  2652.76  13.01
1882.3  20318.80  2488.28  12.25
1885.8  20165.84  2331.67  11.56
1889.3  19976.70  2202.02  11.02
1892.7  19815.25  2110.20  10.65
1896.2  19650.94  2067.67  10.52
1899.7  19441.16  2049.70  10.54
1903.1  19313.45  2087.01  10.81
1906.6  19304.54  2203.79  11.42
1910.0  19451.18  2425.32  12.47
1913.5  19794.95  2709.86  13.69
1917.0  20308.75  3027.85  14.91
1920.4  20662.58  3328.20  16.11
1923.8  20806.27  3576.08  17.19
1871.2  18887.00  2399.98  12.71
1873.9  18953.16  2255.05  11.90
1876.7  18991.47  2150.11  11.32
1879.5  19143.67  2014.63  10.52
1882.3  18900.39  1864.48  9.86
1885.1  18757.12  1729.75  9.22
1887.8  18909.61  1682.32  8.90
1890.6  18719.80  1585.32  8.47
1893.4  18700.00  1493.56  7.99
1896.2  18690.78  1480.77  7.92
1898.9  18634.09  1477.37  7.93
1901.7  18493.24  1451.95  7.85
1904.5  18663.12  1435.35  7.69
1907.2  18605.75  1388.58  7.46
1910.0  18464.96  1357.53  7.35
1912.7  18451.36  1350.46  7.32
1915.5  18338.72  1335.98  7.29
1918.2  18231.61  1319.21  7.24
1921.0  18078.76  1301.98  7.20
1923.7  18082.37  1292.87  7.15
1926.5  18028.91  1280.96  7.11
1929.2  17989.40  1279.46  7.11
1932.0  17961.44  1277.69  7.11
1934.7  17922.05  1274.64  7.11
1937.4  17800.47  1267.55  7.12
1940.2  17730.06  1271.34  7.17
1942.9  17801.07  1278.90  7.18
1945.6  17808.94  1276.45  7.17
1948.3  17731.12  1287.57  7.26
1951.1  17698.80  1298.31  7.34
1953.8  17700.00  1281.00  7.24
1956.5  17568.67  1279.87  7.28
1959.2  17632.03  1301.65  7.38
1961.9  17647.56  1306.23  7.40
1964.6  17543.58  1300.08  7.41
1967.3  17598.27  1306.32  7.42
1970.0  17419.60  1305.36  7.49
1972.8  17335.24  1316.89  7.60
1975.5  17419.52  1337.49  7.68
1978.2  17336.04  1331.52  7.68
1980.9  17221.82  1345.76  7.81
1983.5  17185.34  1356.25  7.89
1986.2  17183.55  1358.00  7.90
1988.9  17157.36  1370.61  7.99
1991.6  17017.92  1363.36  8.01
1994.3  16893.86  1371.00  8.12
1997.0  16913.63  1394.57  8.25
1999.7  16876.79  1391.80  8.25
2002.3  16857.27  1394.22  8.27
2005.0  16785.35  1412.45  8.41
2007.7  16706.93  1419.95  8.50
2010.4  16656.07  1417.03  8.51
2013.0  16600.58  1430.09  8.61
2015.7  16495.88  1442.62  8.75
2018.4  16401.61  1429.68  8.72
2021.0  16371.00  1439.33  8.79
2023.7  16264.64  1445.37  8.89
2026.4  16195.83  1450.58  8.96
2029.0  16138.97  1465.82  9.08
2031.7  16029.65  1466.54  9.15
2034.3  16012.75  1466.55  9.16
2037.0  15932.90  1470.37  9.23
2039.6  15864.39  1476.06  9.30
2042.3  15822.15  1465.95  9.27
2044.9  15747.27  1473.56  9.36
2047.5  15719.22  1490.39  9.48
2050.2  15638.00  1486.80  9.51
2052.8  15596.00  1500.80  9.62
2055.4  15487.61  1483.02  9.58
2058.1  15363.60  1479.33  9.63
2060.7  15311.01  1495.33  9.77
2063.3  15243.07  1480.65  9.71
2065.9  15200.63  1497.26  9.85
2068.6  15142.00  1512.15  9.99
2071.2  15102.27  1515.90  10.04
2073.8  15013.06  1515.76  10.10
2076.4  14939.89  1519.34  10.17
2079.0  14937.96  1518.34  10.16
2081.6  14955.68  1515.45  10.13
2084.2  14929.44  1528.41  10.24
2086.8  14795.01  1538.62  10.40
2089.4  14708.12  1531.80  10.41
2092.1  14645.50  1541.33  10.52
2094.7  14574.18  1550.93  10.64
2097.2  14543.50  1541.34  10.60
2099.8  14569.24  1550.49  10.64
2102.4  14455.51  1544.88  10.69
2105.0  14315.55  1545.65  10.80
2107.6  14281.54  1562.79  10.94
2110.2  14245.28  1561.02  10.96
2112.8  14225.04  1555.74  10.94
2115.3  14222.61  1578.04  11.10
2117.9  14223.97  1600.75  11.25
2120.5  14225.20  1598.40  11.24
2123.1  14136.53  1599.98  11.32
2125.6  14079.43  1613.51  11.46
2128.2  14012.88  1605.76  11.46
2130.8  13940.55  1592.18  11.42
2133.3  13889.33  1604.53  11.55
2135.9  13802.30  1613.02  11.69
2138.4  13704.95  1594.15  11.63
2141.0  13601.55  1589.64  11.69
2143.6  13585.34  1614.37  11.88
2146.1  13439.94  1599.43  11.90
2148.7  13282.54  1570.14  11.82
2151.2  13302.67  1591.82  11.97
2153.8  13324.47  1617.85  12.14
2156.3  13227.98  1609.56  12.17
2158.8  13160.05  1593.82  12.11
2161.4  13128.93  1596.03  12.16
2163.9  13034.58  1589.15  12.19
2166.4  12973.85  1582.80  12.20
2169.0  12959.07  1592.66  12.29
2171.5  12876.28  1582.80  12.29
2174.0  12786.55  1578.74  12.35
2176.5  12767.30  1581.71  12.39
2179.1  12718.27  1568.08  12.33
2181.6  12644.21  1563.42  12.36
2184.1  12612.60  1587.23  12.58
2186.6  12631.79  1586.95  12.56
2189.1  12551.10  1558.99  12.42
2191.6  12501.53  1564.73  12.52
2194.1  12512.72  1578.90  12.62
2196.6  12513.32  1565.86  12.51
2199.2  12564.98  1574.40  12.53
2201.7  12503.60  1577.13  12.61
2204.1  12450.01  1574.73  12.65
2206.6  12458.20  1593.95  12.79
2209.1  12429.94  1590.97  12.80
2211.6  12413.54  1578.50  12.72
2214.1  12385.83  1589.10  12.83
2216.6  12340.79  1583.91  12.83
2219.1  12355.98  1585.17  12.83
2221.6  12303.15  1582.31  12.86
2224.0  12230.10  1546.86  12.65
2226.5  12198.83  1530.88  12.55
2229.0  12234.63  1546.78  12.64
2231.5  12152.59  1524.34  12.54
2233.9  12137.64  1502.13  12.38
2236.4  12131.98  1495.11  12.32
2238.9  12024.13  1488.00  12.38
2241.3  12068.10  1487.30  12.32
2243.8  12017.57  1473.05  12.26
2246.2  11870.35  1442.12  12.15
2248.7  11882.39  1434.68  12.07
2251.2  11860.53  1432.28  12.08
2253.6  11784.96  1414.40  12.00
2256.1  11773.44  1388.80  11.80
2258.5  11793.92  1370.20  11.62
2260.9  11696.75  1357.59  11.61
2263.4  11668.53  1345.98  11.54
2265.8  11678.48  1327.10  11.36
2268.3  11583.48  1314.85  11.35
2270.7  11653.18  1305.03  11.20
2273.1  11608.55  1283.45  11.06
2275.6  11523.84  1280.00  11.11
2278.0  11553.06  1263.17  10.93
2280.4  11529.61  1272.52  11.04
2282.8  11402.06  1259.58  11.05
2285.3  11435.59  1232.60  10.78
2287.7  11531.47  1241.79  10.77
2290.1  11440.95  1225.54  10.71
2292.5  11408.96  1194.47  10.47
2294.9  11404.51  1189.45  10.43
2297.3  11303.39  1178.59  10.43
2299.7  11233.01  1158.18  10.31
2302.1  11231.11  1147.07  10.21
2304.5  11113.20  1118.51  10.06
2306.9  10995.60  1097.60  9.98
2309.3  10932.15  1081.46  9.89
2311.7  10856.55  1066.29  9.82
2314.1  10708.33  1068.60  9.98
2316.5  10641.94  1075.62  10.11
2318.9  10674.03  1082.65  10.14
2321.3  10672.73  1080.21  10.12
2323.7  10642.23  1075.54  10.11
2326.1  10606.96  1081.38  10.20
2328.4  10691.58  1079.47  10.10
2330.8  10736.25  1085.21  10.11
2333.2  10617.06  1059.78  9.98
2335.6  10582.60  1042.07  9.85
2337.9  10642.00  1053.07  9.90
2340.3  10592.40  1055.18  9.96
2342.7  10507.23  1033.94  9.84
2345.0  10502.01  1009.29  9.61
2347.4  10493.25  1005.83  9.59
2349.7  10277.63  991.03  9.64
2352.1  10236.25  983.46  9.61
2354.4  10290.21  974.29  9.47
2356.8  10243.45  974.13  9.51
2359.2  10187.67  969.22  9.51
2361.5  10122.93  971.57  9.60
2363.8  10144.75  957.38  9.44
2366.2  10159.49  947.39  9.33
2368.5  10097.05  946.37  9.37
2370.9  10118.68  951.33  9.40
2373.2  10072.53  962.29  9.55
2375.5  9932.38  918.58  9.25
2377.9  9918.93  917.75  9.25
2380.2  9923.89  930.08  9.37
2382.5  9856.28  902.16  9.15
2384.8  9822.88  881.60  8.97
2387.2  9807.99  884.53  9.02
2389.5  9759.69  886.10  9.08
2391.8  9772.85  877.78  8.98
2394.1  9716.63  881.29  9.07
2396.4  9652.48  870.90  9.02
2398.7  9714.10  857.41  8.83
2401.0  9598.25  865.38  9.02
2403.3  9511.80  856.56  9.01
2405.6  9521.83  821.39  8.63
2407.9  9458.88  823.31  8.70
2410.2  9400.00  852.27  9.07
2412.5  9350.27  824.92  8.82
2414.8  9330.30  801.06  8.59
2417.1  9280.68  817.26  8.81
2419.4  9294.64  802.34  8.63
2421.7  9214.94  793.76  8.61
2424.0  9156.02  808.35  8.83
2426.2  9223.40  788.23  8.55
2428.5  9129.27  786.01  8.61
2430.8  9112.40  788.43  8.65
2433.1  9071.93  776.28  8.56
2435.4  8991.17  777.71  8.65
2437.6  8963.19  766.52  8.55
2439.9  8866.09  731.82  8.25
2442.2  8873.80  743.28  8.38
2444.4  8827.50  754.29  8.54
2446.7  8812.56  733.89  8.33
2448.9  8870.66  724.42  8.17
2451.2  8802.92  729.11  8.28
2453.4  8732.64  731.24  8.37
2455.7  8702.87  737.91  8.48
2457.9  8608.05  734.64  8.53
2460.2  8594.01  688.43  8.01
2462.4  8611.20  678.08  7.87
2464.7  8503.63  677.10  7.96
2466.9  8416.62  697.64  8.29
2469.2  8471.54  725.95  8.57
2471.4  8370.38  665.25  7.95
2473.6  8261.63  662.81  8.02
2475.9  8256.69  679.59  8.23
2478.1  8211.66  642.18  7.82
2480.3  8173.00  647.44  7.92
2482.5  8177.69  643.35  7.87
2484.8  8119.06  645.64  7.95
2487.0  8110.30  634.50  7.82
2489.2  8058.48  655.84  8.14
2491.4  7946.29  673.72  8.48
2493.6  7987.26  627.07  7.85
2495.8  7981.68  636.11  7.97
2498.0  7985.07  626.91  7.85
2500.2  7961.63  626.26  7.87
2502.4  8125.20  636.40  7.83
2504.6  8272.59  632.26  7.64
2506.8  8348.61  659.19  7.90
