/*** Spectra Vista SIG Data ***/
name= CB.sig
comm= Averaged Ref/Tar of files: CB1,CB2,CB3
data=
346.4  509.60  120.61  23.67
347.9  536.51  124.25  23.16
349.5  577.20  119.39  20.68
351.1  620.88  125.22  20.17
352.6  679.94  130.30  19.16
354.2  723.22  136.13  18.82
355.7  777.89  138.30  17.78
357.3  842.60  143.79  17.06
358.8  838.80  148.65  17.72
360.4  904.00  153.83  17.02
361.9  943.76  156.48  16.58
363.5  997.20  153.74  15.42
365.1  1040.25  155.35  14.93
366.6  1087.54  158.36  14.56
368.2  1161.70  160.27  13.80
369.7  1204.79  161.07  13.37
371.3  1287.37  163.31  12.69
372.8  1354.56  161.13  11.90
374.4  1435.13  169.10  11.78
375.9  1463.02  169.91  11.61
377.4  1512.41  168.26  11.13
379.0  1578.52  169.73  10.75
380.5  1618.77  171.93  10.62
382.1  1669.58  169.82  10.17
383.6  1726.52  169.34  9.81
385.2  1809.50  169.40  9.36
386.7  1900.67  174.36  9.17
388.3  1991.93  175.01  8.79
389.8  2077.97  179.70  8.65
391.3  2163.95  184.18  8.51
392.9  2236.17  192.70  8.62
394.4  2293.88  206.93  9.02
395.9  2364.42  211.85  8.96
397.5  2493.56  220.93  8.86
399.0  2617.23  222.07  8.48
400.6  2691.33  219.99  8.17
402.1  2739.96  217.41  7.93
403.6  2797.88  215.78  7.71
405.1  2865.39  219.06  7.64
406.7  2979.20  224.00  7.52
408.2  3089.54  227.80  7.37
409.7  3183.04  238.64  7.50
411.3  3295.62  247.86  7.52
412.8  3391.47  260.38  7.68
414.3  3507.27  272.82  7.78
415.8  3622.50  285.00  7.87
417.4  3739.34  294.83  7.88
418.9  3830.42  305.96  7.99
420.4  3913.23  310.73  7.94
421.9  3978.48  319.44  8.03
423.5  4044.22  324.72  8.03
425.0  4110.68  329.03  8.00
426.5  4198.95  334.54  7.97
428.0  4314.36  344.27  7.98
429.5  4445.73  352.34  7.93
431.1  4599.50  363.00  7.89
432.6  4769.72  376.04  7.88
434.1  4937.63  385.26  7.80
435.6  5085.18  400.42  7.87
437.1  5233.80  417.56  7.98
438.6  5364.45  428.11  7.98
440.1  5501.44  441.70  8.03
441.6  5653.06  459.78  8.13
443.1  5799.60  475.74  8.20
444.7  5941.01  497.04  8.37
446.2  6051.88  514.46  8.50
447.7  6161.82  535.06  8.68
449.2  6292.08  555.26  8.82
450.7  6396.00  576.30  9.01
452.2  6529.70  589.50  9.03
453.7  6647.26  606.68  9.13
455.2  6815.62  621.79  9.12
456.7  7013.60  642.99  9.17
458.2  7232.90  665.68  9.20
459.7  7456.75  688.33  9.23
461.2  7667.16  712.83  9.30
462.7  7858.10  731.27  9.31
464.2  8041.02  752.01  9.35
465.7  8240.35  771.28  9.36
467.2  8402.63  790.28  9.41
468.7  8584.00  810.93  9.45
470.2  8698.25  829.43  9.54
471.7  8877.75  854.68  9.63
473.2  9159.71  896.59  9.79
474.6  9386.40  921.39  9.82
476.1  9450.96  925.73  9.80
477.6  9499.75  929.16  9.78
479.1  9557.87  934.50  9.78
480.6  9632.82  943.13  9.79
482.1  9760.73  960.21  9.84
483.6  9935.74  983.56  9.90
485.1  10133.78  1004.49  9.91
486.6  10366.07  1036.83  10.00
488.0  10621.00  1070.77  10.08
489.5  10873.80  1108.53  10.19
491.0  11134.31  1153.48  10.36
492.5  11404.80  1199.88  10.52
494.0  11683.71  1254.81  10.74
495.4  11917.95  1307.24  10.97
496.9  12154.26  1369.40  11.27
498.4  12387.41  1435.69  11.59
499.9  12623.63  1507.28  11.94
501.4  12839.71  1589.81  12.38
502.8  13042.06  1668.75  12.80
504.3  13226.40  1763.76  13.34
505.8  13406.54  1856.25  13.85
507.2  13518.16  1956.63  14.47
508.7  13603.31  2055.23  15.11
510.2  13672.60  2155.34  15.76
511.6  13715.26  2267.03  16.53
513.1  13806.21  2386.12  17.28
514.6  13898.29  2510.52  18.06
516.0  13992.63  2635.25  18.83
517.5  14151.40  2778.15  19.63
519.0  14339.95  2926.20  20.41
520.5  14520.56  3074.02  21.17
521.9  14760.83  3232.74  21.90
523.4  15031.28  3397.99  22.61
524.8  15295.25  3559.28  23.27
526.3  15594.01  3724.70  23.89
527.8  15909.50  3888.95  24.44
529.2  16189.50  4035.34  24.93
530.7  16509.28  4192.22  25.39
532.1  16791.25  4334.25  25.81
533.6  17121.20  4478.42  26.16
535.0  17454.94  4622.54  26.48
536.5  17789.22  4761.09  26.76
538.0  18136.88  4893.66  26.98
539.4  18461.69  5020.27  27.19
540.9  18864.39  5174.86  27.43
542.3  19206.33  5319.49  27.70
543.8  19460.81  5437.57  27.94
545.2  19544.37  5496.82  28.12
546.6  19566.05  5533.47  28.28
548.1  19604.97  5576.12  28.44
549.5  19640.65  5609.51  28.56
551.0  19664.79  5637.83  28.67
552.4  19724.92  5674.78  28.77
553.9  19761.60  5698.65  28.84
555.3  19812.20  5720.60  28.87
556.8  19934.49  5757.05  28.88
558.2  20047.50  5785.65  28.86
559.6  20200.16  5814.16  28.78
561.1  20397.00  5854.98  28.71
562.5  20617.77  5894.64  28.59
564.0  20901.40  5946.92  28.45
565.4  21161.13  5986.61  28.29
566.8  21482.31  6040.31  28.12
568.3  21793.28  6079.08  27.89
569.7  22118.60  6113.94  27.64
571.1  22425.71  6139.94  27.38
572.6  22741.56  6163.13  27.10
574.0  23030.70  6180.24  26.83
575.4  23309.44  6193.13  26.57
576.9  23581.06  6202.58  26.30
578.3  23822.01  6210.49  26.07
579.7  24048.22  6215.24  25.84
581.1  24227.75  6204.10  25.61
582.6  24429.78  6208.81  25.41
584.0  24600.48  6208.49  25.24
585.4  24853.74  6235.31  25.09
586.8  25196.68  6294.84  24.98
588.3  25573.86  6362.93  24.88
589.7  25896.78  6415.66  24.77
591.1  26104.75  6442.85  24.68
592.5  26211.06  6446.62  24.60
594.0  26269.26  6436.82  24.50
595.4  26286.44  6421.70  24.43
596.8  26295.56  6408.97  24.37
598.2  26315.92  6392.18  24.29
599.6  26317.98  6376.15  24.23
601.0  26398.05  6375.27  24.15
602.4  26470.93  6366.35  24.05
603.9  26597.64  6363.03  23.92
605.3  26727.57  6356.61  23.78
606.7  26857.80  6334.56  23.59
608.1  27088.39  6330.50  23.37
609.5  27333.21  6321.87  23.13
610.9  27623.29  6318.80  22.87
612.3  27891.32  6310.22  22.62
613.7  28252.28  6313.78  22.35
615.1  28513.62  6289.49  22.06
616.5  28776.05  6272.12  21.80
617.9  29165.50  6289.28  21.56
619.3  29543.24  6314.50  21.37
620.7  29990.55  6371.50  21.25
622.1  30437.05  6418.80  21.09
623.5  30934.60  6477.92  20.94
624.9  31494.75  6565.76  20.85
626.3  31867.36  6634.97  20.82
627.7  31569.69  6580.65  20.84
629.1  31287.59  6555.31  20.95
630.5  31184.65  6545.19  20.99
631.9  31222.21  6543.02  20.96
633.3  31256.33  6519.76  20.86
634.7  31400.48  6502.34  20.71
636.1  31461.82  6444.88  20.48
637.5  31554.77  6369.76  20.19
638.9  31702.82  6280.94  19.81
640.2  31825.04  6169.64  19.39
641.6  31863.78  6030.02  18.92
643.0  31847.61  5873.93  18.44
644.4  31829.55  5724.05  17.98
645.8  31751.71  5570.78  17.54
647.2  31867.94  5486.69  17.22
648.5  31926.34  5429.68  17.01
649.9  31776.23  5401.24  17.00
651.3  31648.05  5381.18  17.00
652.7  31449.15  5331.54  16.95
654.1  31244.46  5191.58  16.62
655.5  31005.95  5014.27  16.17
656.8  30780.41  4841.67  15.73
658.2  30925.42  4729.61  15.29
659.6  31264.45  4640.46  14.84
660.9  31536.04  4540.10  14.40
662.3  31822.64  4439.71  13.95
663.7  32096.40  4330.20  13.49
665.0  32332.90  4229.70  13.08
666.4  32562.99  4142.39  12.72
667.8  32863.56  4079.86  12.41
669.1  33114.69  4023.20  12.15
670.5  33405.09  3995.13  11.96
671.9  33586.56  3967.94  11.81
673.2  33844.75  3976.57  11.75
674.6  34082.18  3998.76  11.73
676.0  34372.41  4046.90  11.77
677.3  34659.68  4115.14  11.87
678.7  34979.63  4216.00  12.05
680.0  35399.92  4358.87  12.31
681.4  35845.89  4552.97  12.70
682.8  36270.33  4813.60  13.27
684.1  36705.24  5138.64  14.00
685.5  37104.21  5534.08  14.91
686.8  37507.62  6011.25  16.03
688.2  37862.83  6554.88  17.31
689.5  38000.96  7133.95  18.77
690.9  38124.79  7756.66  20.35
692.2  38229.60  8420.10  22.03
693.6  38334.37  9106.41  23.76
694.9  38335.34  9777.72  25.51
696.2  38393.33  10465.58  27.26
697.6  38453.39  11141.79  28.97
698.9  38522.88  11807.14  30.65
700.3  38613.54  12464.63  32.28
701.6  38716.02  13095.96  33.83
703.0  38828.83  13694.20  35.27
704.3  38882.19  14220.98  36.57
705.6  38895.39  14722.65  37.85
707.0  38949.12  15199.10  39.02
708.3  38885.46  15608.05  40.14
709.6  38817.35  15986.50  41.18
711.0  38702.88  16311.54  42.15
712.3  38573.15  16622.61  43.09
713.6  38531.64  16935.58  43.95
714.9  38462.14  17222.79  44.78
716.3  38461.08  17523.48  45.56
717.6  38479.84  17826.82  46.33
718.9  38424.85  18062.76  47.01
720.2  38251.08  18218.93  47.63
721.6  38113.53  18384.51  48.24
722.9  37945.16  18518.40  48.80
724.2  37714.27  18614.41  49.36
725.5  37534.96  18717.21  49.87
726.8  37360.68  18787.78  50.29
728.1  37271.09  18888.72  50.68
729.5  37167.13  18983.38  51.08
730.8  37093.13  19081.47  51.44
732.1  36996.92  19165.12  51.80
733.4  36936.39  19254.66  52.13
734.7  36864.47  19323.96  52.42
736.0  36851.62  19428.92  52.72
737.3  36774.45  19499.44  53.02
738.6  36845.76  19623.99  53.26
739.9  37000.34  19790.23  53.49
741.2  37119.81  19914.44  53.65
742.5  37372.03  20095.57  53.77
743.8  37768.50  20382.67  53.97
745.1  38387.22  20784.04  54.14
746.4  39127.73  21246.07  54.30
747.7  39918.22  21708.55  54.38
749.0  40672.12  22177.02  54.53
750.3  41122.66  22459.98  54.62
751.6  41047.35  22477.26  54.76
752.9  40630.59  22307.81  54.90
754.2  40176.47  22089.30  54.98
755.4  39652.21  21838.19  55.07
756.7  39478.17  21777.21  55.16
758.0  39495.60  21817.66  55.24
759.3  39730.28  21999.26  55.37
760.6  40061.56  22233.49  55.50
761.9  40384.10  22445.17  55.58
763.1  40567.56  22573.60  55.64
764.4  40796.65  22722.38  55.70
765.7  40953.25  22834.93  55.76
767.0  41079.80  22933.44  55.83
768.2  41207.04  23020.03  55.86
769.5  41279.98  23094.56  55.95
770.8  41469.61  23234.31  56.03
772.0  41501.32  23292.07  56.12
773.3  41583.65  23366.02  56.19
774.6  41708.58  23434.96  56.19
775.8  41815.15  23488.94  56.17
777.1  41846.51  23524.80  56.22
778.4  41799.94  23513.89  56.25
779.6  41775.90  23534.94  56.34
780.9  41704.00  23525.33  56.41
782.1  41523.21  23462.49  56.50
783.4  41558.40  23470.72  56.48
784.6  41567.36  23479.51  56.49
785.9  41861.56  23657.62  56.51
787.1  42409.87  24005.11  56.60
788.4  42854.47  24291.92  56.68
789.6  42849.18  24283.04  56.67
790.9  42483.96  24076.07  56.67
792.1  42011.92  23833.92  56.73
793.4  41570.15  23598.27  56.77
794.6  41283.15  23447.01  56.80
795.8  41024.39  23320.85  56.85
797.1  40758.68  23177.56  56.87
798.3  40551.64  23087.41  56.93
799.5  40444.72  23032.79  56.95
800.8  40323.21  22974.20  56.98
802.0  40187.32  22924.23  57.04
803.2  40033.64  22854.33  57.09
804.5  39942.72  22819.33  57.13
805.7  39829.66  22772.30  57.17
806.9  39715.93  22710.67  57.18
808.1  39632.97  22695.90  57.27
809.4  39553.39  22682.66  57.35
810.6  39489.45  22649.90  57.36
811.8  39474.39  22660.70  57.41
813.0  39504.71  22692.24  57.44
814.2  39525.61  22735.02  57.52
815.4  39644.33  22811.10  57.54
816.6  39709.73  22844.23  57.53
817.9  39791.57  22886.08  57.51
819.1  39719.87  22889.53  57.63
820.3  39621.11  22832.72  57.63
821.5  39546.25  22817.72  57.70
822.7  39480.04  22814.58  57.79
823.9  39499.25  22836.84  57.82
825.1  39541.96  22863.67  57.82
826.3  39583.35  22898.44  57.85
827.5  39640.56  22954.57  57.91
828.7  39708.48  23004.90  57.93
829.9  39767.03  23049.67  57.96
831.0  39870.82  23122.65  57.99
832.2  39993.87  23202.49  58.02
833.4  40076.64  23272.43  58.07
834.6  40148.44  23341.25  58.14
835.8  40238.10  23403.24  58.16
837.0  40328.28  23480.26  58.22
838.1  40500.72  23569.14  58.19
839.3  40601.19  23642.23  58.23
840.5  40716.87  23722.50  58.26
841.7  40854.11  23828.15  58.32
842.9  40980.73  23947.61  58.44
844.0  41100.82  24031.23  58.47
845.2  41245.09  24138.24  58.52
846.4  41368.25  24223.53  58.56
847.5  41564.18  24370.69  58.63
848.7  41743.64  24504.28  58.70
849.9  41936.76  24607.63  58.68
851.0  42020.98  24651.69  58.67
852.2  42107.61  24693.24  58.64
853.3  42066.96  24705.75  58.73
854.5  42098.11  24726.78  58.74
855.6  42095.43  24747.92  58.79
856.8  42111.00  24777.56  58.84
857.9  42111.88  24787.57  58.86
859.1  42240.60  24856.21  58.84
860.2  42245.56  24869.64  58.87
861.4  42273.83  24896.08  58.89
862.5  42309.54  24921.65  58.90
863.7  42384.63  24972.80  58.92
864.8  42387.10  24991.59  58.96
865.9  42333.82  24975.65  59.00
867.1  42372.33  24990.63  58.98
868.2  42368.54  25016.02  59.04
869.3  42393.50  25023.61  59.03
870.5  42342.80  24996.56  59.03
871.6  42318.48  25021.93  59.13
872.7  42385.23  25072.09  59.15
873.9  42404.90  25079.54  59.14
875.0  42391.36  25058.99  59.11
876.1  42363.75  25067.02  59.17
877.2  42397.32  25091.16  59.18
878.3  42381.77  25066.39  59.14
879.4  42397.70  25101.47  59.20
880.5  42451.56  25109.38  59.15
881.7  42410.55  25111.15  59.21
882.8  42454.72  25145.46  59.23
883.9  42482.63  25155.04  59.21
885.0  42446.04  25123.37  59.19
886.1  42420.10  25087.60  59.14
887.2  42295.80  25008.70  59.13
888.3  42201.80  24949.99  59.12
889.4  42117.30  24883.49  59.08
890.5  42026.34  24841.79  59.11
891.6  41981.69  24808.27  59.09
892.7  41962.31  24794.98  59.09
893.8  41981.79  24851.71  59.20
894.9  41952.35  24831.16  59.19
896.0  41968.71  24790.27  59.07
897.0  41952.48  24807.11  59.13
898.1  41951.64  24808.77  59.14
899.2  41983.30  24808.28  59.09
900.3  41907.57  24789.60  59.15
901.4  41820.39  24750.33  59.18
902.4  41828.99  24752.05  59.17
903.5  41775.96  24732.18  59.20
904.6  41798.96  24748.39  59.21
905.7  41805.42  24753.82  59.21
906.7  41815.90  24736.26  59.16
907.8  41839.20  24761.32  59.18
908.9  41746.38  24703.18  59.17
909.9  41734.69  24693.92  59.17
911.0  41681.88  24640.36  59.12
912.1  41602.05  24621.59  59.18
913.1  41535.52  24586.71  59.19
914.2  41457.24  24542.10  59.20
915.2  41368.59  24543.43  59.33
916.3  41436.15  24538.08  59.22
917.3  41410.15  24545.03  59.27
918.4  41310.50  24501.40  59.31
919.4  41328.17  24447.80  59.16
920.5  41309.67  24442.16  59.17
921.5  41323.66  24452.09  59.17
922.6  41255.80  24419.95  59.19
923.6  41303.54  24438.02  59.17
924.7  41344.50  24451.23  59.14
925.7  41333.16  24458.17  59.17
926.7  41356.90  24463.10  59.15
927.8  41415.30  24470.16  59.08
928.8  41570.85  24526.99  59.00
929.9  41658.93  24631.33  59.13
930.9  41879.39  24721.17  59.03
931.9  42070.56  24822.55  59.00
932.9  42412.10  25011.43  58.97
934.0  42452.50  25008.27  58.91
935.0  42440.57  25004.03  58.92
936.0  42488.02  24988.21  58.81
937.0  42429.47  24965.22  58.84
938.1  42380.86  24961.86  58.90
939.1  42337.65  24938.72  58.90
940.1  42429.30  24988.97  58.90
941.1  42615.86  25098.74  58.90
942.1  42903.92  25263.28  58.88
943.1  43057.09  25356.55  58.89
944.1  43342.63  25493.85  58.82
945.2  43356.60  25500.10  58.81
946.2  43482.48  25530.13  58.71
947.2  43549.00  25576.57  58.73
948.2  43743.16  25659.39  58.66
949.2  43840.88  25709.67  58.64
950.2  43906.25  25720.87  58.58
951.2  44010.96  25782.06  58.58
952.2  44061.91  25781.47  58.51
953.2  44318.14  25862.36  58.36
954.2  44380.80  25916.94  58.40
955.2  44428.35  25927.81  58.36
956.2  44460.20  25937.20  58.34
957.2  44542.35  25944.19  58.25
958.2  44649.94  25959.37  58.14
959.2  44705.25  25991.76  58.14
960.1  44813.66  26031.52  58.09
961.1  44928.76  26081.08  58.05
962.1  44958.75  26098.88  58.05
963.1  44986.01  26120.83  58.06
964.1  45106.16  26210.76  58.11
965.1  45270.70  26292.82  58.08
966.1  45207.41  26308.69  58.20
967.0  45355.66  26347.55  58.09
968.0  45441.48  26361.32  58.01
969.0  45453.60  26399.04  58.08
970.0  45557.64  26448.74  58.06
971.0  45615.57  26479.21  58.05
971.9  45699.86  26571.26  58.14
972.9  45781.93  26639.74  58.19
973.9  45829.88  26654.07  58.16
974.9  45973.78  26648.81  57.97
975.8  45979.65  26766.59  58.21
976.8  46106.16  26841.76  58.22
977.8  46097.80  26853.75  58.25
978.8  46103.70  26963.06  58.48
979.7  46387.55  27047.79  58.31
980.7  46405.76  27172.75  58.55
981.7  46694.84  27257.50  58.37
982.6  46857.76  27480.93  58.65
983.6  47433.79  27692.04  58.38
984.6  47818.98  28015.16  58.59
985.5  48063.24  28411.63  59.11
986.5  48770.77  28751.30  58.95
987.5  50043.63  29280.72  58.51
988.4  50895.90  29747.96  58.45
989.4  52431.75  30493.64  58.16
990.4  53425.02  30945.64  57.92
991.3  55387.31  31721.31  57.27
992.3  55950.90  32579.34  58.23
993.2  58118.31  33150.62  57.04
994.2  59457.94  34038.62  57.25
995.2  60710.63  34430.67  56.71
996.1  61737.77  34801.35  56.37
997.1  61885.85  34656.08  56.00
998.0  61668.00  34214.32  55.48
999.0  61787.86  34591.57  55.98
1000.0  62252.49  35301.41  56.71
1000.9  62564.91  34836.98  55.68
1001.9  61626.12  34218.71  55.53
1002.8  61885.09  33674.41  54.41
1003.8  61970.58  34622.06  55.87
1004.8  62064.96  34622.51  55.78
961.5  55881.62  28456.44  50.92
965.5  54589.44  28090.82  51.46
969.5  52393.79  27410.61  52.32
973.4  50126.74  26896.54  53.66
977.4  48345.52  26530.48  54.88
981.4  47464.01  26368.90  55.56
985.3  47176.98  26337.64  55.83
989.3  47304.75  26401.89  55.81
993.3  47508.66  26426.35  55.62
997.2  47541.75  26354.32  55.43
1001.2  47520.33  26310.61  55.37
1005.2  47455.76  26326.16  55.48
1009.1  47529.68  26441.09  55.63
1013.1  47663.39  26611.86  55.83
1017.1  47785.75  26754.47  55.99
1021.0  47816.50  26799.59  56.05
1025.0  47819.30  26835.12  56.12
1029.0  47652.00  26786.20  56.21
1032.9  47495.63  26745.94  56.31
1036.9  47497.16  26790.99  56.41
1040.9  47608.97  26909.42  56.52
1044.8  47827.54  27074.14  56.61
1048.8  48004.98  27215.75  56.69
1052.7  48133.54  27314.26  56.75
1056.7  48188.20  27351.85  56.76
1060.7  48194.60  27380.70  56.81
1064.6  48198.22  27413.08  56.88
1068.6  48113.17  27383.37  56.91
1072.5  48026.55  27353.11  56.95
1076.5  47975.49  27333.92  56.97
1080.4  47966.69  27327.34  56.97
1084.4  48069.59  27368.46  56.94
1088.3  48170.15  27418.42  56.92
1092.3  48152.58  27392.52  56.89
1096.2  48142.77  27355.80  56.82
1100.2  48183.64  27345.57  56.75
1104.1  48079.94  27259.22  56.70
1108.1  48035.13  27199.96  56.63
1112.0  47943.86  27093.83  56.51
1116.0  47742.57  26914.42  56.37
1119.9  47581.47  26735.55  56.19
1123.9  47666.30  26683.50  55.98
1127.8  47639.04  26548.48  55.73
1131.8  47617.38  26356.31  55.35
1135.7  47659.94  26142.34  54.85
1139.6  47675.62  25850.83  54.22
1143.6  47638.82  25510.62  53.55
1147.5  47616.88  25194.83  52.91
1151.4  47500.80  24853.80  52.32
1155.4  47513.75  24663.00  51.91
1159.3  47522.52  24545.42  51.65
1163.2  47363.89  24362.09  51.44
1167.2  47347.50  24276.14  51.27
1171.1  47369.57  24220.62  51.13
1175.0  47314.40  24133.82  51.01
1179.0  47268.08  24071.39  50.93
1182.9  47358.68  24078.03  50.84
1186.8  47350.70  24043.02  50.78
1190.7  47139.70  23888.94  50.68
1194.7  46883.87  23718.93  50.59
1198.6  46652.76  23593.19  50.57
1202.5  46480.48  23521.74  50.61
1206.4  46340.80  23480.39  50.67
1210.3  46236.01  23462.05  50.74
1214.2  46114.66  23465.98  50.89
1218.2  45952.68  23455.11  51.04
1222.1  45800.88  23445.73  51.19
1226.0  45686.61  23468.08  51.37
1229.9  45598.02  23489.60  51.51
1233.8  45484.04  23478.33  51.62
1237.7  45416.66  23480.35  51.70
1241.6  45332.53  23466.12  51.76
1245.5  45166.97  23410.74  51.83
1249.4  45023.84  23361.00  51.89
1253.3  44894.25  23312.59  51.93
1257.2  44816.00  23293.84  51.98
1261.1  44716.86  23258.99  52.01
1265.0  44587.73  23186.62  52.00
1268.9  44400.64  23065.80  51.95
1272.8  44460.00  23075.50  51.90
1276.7  44653.74  23155.05  51.85
1280.6  44733.81  23166.38  51.79
1284.5  44649.07  23077.48  51.69
1288.4  44631.63  23007.14  51.55
1292.3  44511.50  22885.50  51.41
1296.2  44360.33  22730.66  51.24
1300.1  44197.71  22528.23  50.97
1303.9  43963.66  22261.99  50.64
1307.8  43715.49  21981.43  50.28
1311.7  43464.03  21684.94  49.89
1315.6  43214.30  21367.47  49.45
1319.5  42962.15  21015.76  48.92
1323.3  42734.84  20657.48  48.34
1327.2  42525.95  20293.75  47.72
1331.1  42285.13  19906.21  47.08
1335.0  41985.32  19477.72  46.39
1338.8  41775.29  19087.64  45.69
1342.7  41609.18  18701.98  44.95
1346.5  41242.98  18198.68  44.13
1350.4  40931.78  17706.26  43.26
1354.3  40517.39  17171.23  42.38
1358.1  40047.65  16666.00  41.62
1362.0  39764.09  16294.46  40.98
1365.8  39670.89  16012.79  40.36
1369.7  39786.92  15774.43  39.65
1373.5  39741.56  15337.03  38.59
1377.4  39487.75  14664.40  37.14
1381.2  39276.49  13894.38  35.38
1385.1  39242.56  13124.66  33.44
1389.0  39129.70  12267.49  31.35
1392.8  38925.66  11319.01  29.08
1396.6  38773.68  10404.86  26.83
1400.5  38560.99  9564.52  24.80
1404.3  38397.74  8855.67  23.06
1408.2  38363.03  8290.97  21.61
1412.0  38325.01  7826.23  20.42
1415.8  38359.09  7484.84  19.51
1419.6  38319.36  7214.62  18.83
1423.5  38299.37  6999.85  18.28
1427.3  38266.05  6838.65  17.87
1431.1  38248.58  6727.00  17.59
1434.9  38159.15  6636.21  17.39
1438.8  38104.90  6580.78  17.27
1442.6  38084.31  6549.33  17.20
1446.4  37958.74  6512.40  17.16
1450.2  37871.04  6497.98  17.16
1454.0  37772.76  6494.96  17.19
1457.8  37752.26  6515.17  17.26
1461.6  37732.17  6554.72  17.37
1465.4  37609.21  6600.26  17.55
1469.2  37426.03  6661.20  17.80
1473.0  37290.43  6753.58  18.11
1476.8  37245.30  6883.36  18.48
1480.7  37186.44  7029.96  18.90
1484.4  37061.40  7178.20  19.37
1488.2  36961.08  7342.36  19.87
1492.0  36836.53  7510.26  20.39
1495.8  36720.78  7674.34  20.90
1499.6  36605.30  7824.57  21.38
1503.4  36479.87  7962.24  21.83
1507.2  36356.05  8091.74  22.26
1510.9  36204.04  8220.03  22.70
1514.7  36047.88  8358.59  23.19
1518.5  35919.58  8498.87  23.66
1522.3  35781.38  8615.27  24.08
1526.0  35674.52  8730.33  24.47
1529.8  35609.17  8859.20  24.88
1533.6  35484.33  8976.84  25.30
1537.3  35352.32  9098.99  25.74
1541.1  35225.58  9225.12  26.19
1544.8  35097.60  9352.80  26.65
1548.6  34949.35  9472.56  27.10
1552.4  34850.72  9584.21  27.50
1556.1  34790.76  9676.15  27.81
1559.9  34705.82  9745.97  28.08
1563.6  34578.39  9814.81  28.38
1567.3  34459.02  9907.35  28.75
1571.1  34243.92  9961.15  29.09
1574.8  34100.68  10026.99  29.40
1578.6  34000.34  10103.63  29.72
1582.3  33854.52  10150.06  29.98
1586.0  33716.51  10197.38  30.24
1589.8  33582.95  10240.74  30.49
1593.5  33431.04  10277.36  30.74
1597.2  33294.67  10318.70  30.99
1600.9  33154.19  10347.32  31.21
1604.7  33000.40  10368.94  31.42
1608.4  32856.34  10395.52  31.64
1612.1  32695.22  10412.20  31.85
1615.8  32545.96  10426.80  32.04
1619.5  32465.11  10461.01  32.22
1623.2  32316.22  10466.30  32.39
1626.9  32130.25  10454.16  32.54
1630.6  31953.68  10453.59  32.71
1634.3  31816.04  10453.82  32.86
1638.0  31668.49  10431.59  32.94
1641.7  31487.82  10408.67  33.06
1645.4  31299.16  10373.20  33.14
1649.1  31105.38  10322.43  33.19
1652.8  30949.76  10282.64  33.22
1656.4  30780.36  10224.70  33.22
1660.1  30613.88  10162.11  33.19
1663.8  30416.03  10088.46  33.17
1667.5  30257.50  10028.82  33.14
1671.1  30134.40  9981.73  33.12
1674.8  29937.06  9913.70  33.12
1678.5  29873.87  9887.85  33.10
1682.1  29892.23  9876.68  33.04
1685.8  29901.92  9857.50  32.97
1689.5  29795.07  9789.91  32.86
1693.1  29653.44  9704.36  32.73
1696.8  29511.75  9615.59  32.58
1700.4  29358.15  9519.27  32.42
1704.0  29237.42  9425.28  32.24
1707.7  28983.16  9282.16  32.03
1711.3  28689.26  9122.47  31.80
1715.0  28479.20  8996.53  31.59
1718.6  28311.14  8881.97  31.37
1722.2  28171.19  8771.54  31.14
1725.9  28024.58  8675.54  30.96
1729.5  27888.80  8591.10  30.80
1733.1  27770.82  8510.05  30.64
1736.7  27655.67  8436.48  30.51
1740.3  27487.42  8336.20  30.33
1744.0  27395.86  8249.43  30.11
1747.5  27255.01  8146.14  29.89
1751.2  27041.09  8015.89  29.64
1754.8  26881.34  7903.89  29.40
1758.4  26750.86  7810.78  29.20
1762.0  26572.85  7709.30  29.01
1765.5  26446.23  7626.48  28.84
1769.1  26402.40  7576.00  28.69
1772.7  26328.38  7515.59  28.55
1776.3  26208.92  7446.04  28.41
1779.9  26081.92  7378.88  28.29
1783.5  26027.60  7331.71  28.17
1787.0  25897.14  7273.76  28.09
1790.6  25747.79  7216.61  28.03
1794.2  25651.68  7176.29  27.98
1797.8  25552.23  7136.90  27.93
1801.3  25471.95  7104.39  27.89
1804.9  25318.13  7053.38  27.86
1808.4  25235.40  7017.69  27.81
1812.0  25102.89  6964.88  27.75
1815.5  24947.72  6906.45  27.68
1819.1  24745.29  6848.27  27.68
1822.6  24588.72  6798.45  27.65
1826.2  24468.62  6742.03  27.55
1829.7  24298.19  6663.44  27.42
1833.2  24066.25  6566.05  27.28
1836.8  23846.10  6478.29  27.17
1840.3  23701.28  6412.32  27.05
1843.8  23605.26  6339.78  26.86
1847.3  23552.23  6268.61  26.62
1850.8  23482.37  6172.99  26.29
1854.3  23328.90  6035.95  25.87
1857.8  23249.20  5886.40  25.32
1861.3  23245.10  5682.53  24.45
1864.8  23154.55  5381.98  23.24
1868.3  22923.75  5014.19  21.87
1871.8  22725.12  4641.28  20.42
1875.3  22663.55  4280.04  18.89
1878.8  22668.35  3915.98  17.28
1882.3  22613.87  3553.57  15.71
1885.8  22446.65  3217.75  14.34
1889.3  22245.45  2922.13  13.14
1892.7  22073.02  2673.91  12.11
1896.2  21956.57  2505.01  11.41
1899.7  21800.31  2413.76  11.07
1903.1  21719.54  2410.41  11.10
1906.6  21807.87  2556.82  11.72
1910.0  22098.88  2835.33  12.83
1913.5  22634.73  3248.12  14.35
1917.0  23151.98  3852.51  16.64
1920.4  23436.08  4483.83  19.13
1923.8  23677.97  4930.65  20.82
1871.2  20787.15  3540.84  17.03
1873.9  20907.54  3382.58  16.18
1876.7  21048.38  3198.53  15.20
1879.5  21252.88  2947.85  13.87
1882.3  20993.42  2664.40  12.69
1885.1  20851.78  2376.25  11.40
1887.8  20921.79  2116.64  10.12
1890.6  20723.54  1923.18  9.28
1893.4  20650.67  1760.00  8.52
1896.2  20581.86  1570.17  7.63
1898.9  20516.13  1460.24  7.12
1901.7  20380.18  1350.06  6.62
1904.5  20546.36  1269.60  6.18
1907.2  20463.00  1244.50  6.08
1910.0  20358.58  1206.21  5.92
1912.7  20364.96  1179.65  5.79
1915.5  20273.08  1154.09  5.69
1918.2  20210.43  1129.56  5.59
1921.0  20079.87  1114.02  5.55
1923.7  20126.73  1128.34  5.61
1926.5  20096.89  1140.92  5.68
1929.2  20080.15  1129.82  5.63
1932.0  20066.00  1143.92  5.70
1934.7  20016.92  1152.70  5.76
1937.4  19925.11  1137.28  5.71
1940.2  19881.39  1156.60  5.82
1942.9  19959.98  1183.49  5.93
1945.6  19965.22  1190.89  5.96
1948.3  19894.11  1205.34  6.06
1951.1  19862.99  1234.10  6.21
1953.8  19866.00  1242.00  6.25
1956.5  19752.03  1248.92  6.32
1959.2  19805.76  1278.72  6.46
1961.9  19837.86  1302.26  6.56
1964.6  19745.08  1329.83  6.73
1967.3  19784.70  1363.68  6.89
1970.0  19621.84  1369.49  6.98
1972.8  19538.55  1401.21  7.17
1975.5  19602.81  1436.02  7.33
1978.2  19540.64  1445.40  7.40
1980.9  19419.73  1475.97  7.60
1983.5  19352.05  1504.58  7.77
1986.2  19366.05  1525.81  7.88
1988.9  19348.59  1563.64  8.08
1991.6  19202.00  1589.30  8.28
1994.3  19065.89  1620.36  8.50
1997.0  19096.32  1660.80  8.70
1999.7  19065.00  1681.84  8.82
2002.3  19034.90  1704.90  8.96
2005.0  18965.86  1731.76  9.13
2007.7  18877.00  1760.13  9.32
2010.4  18811.60  1791.04  9.52
2013.0  18774.16  1826.49  9.73
2015.7  18678.28  1851.82  9.91
2018.4  18548.96  1865.58  10.06
2021.0  18504.50  1890.78  10.22
2023.7  18401.60  1916.48  10.41
2026.4  18333.68  1935.05  10.55
2029.0  18267.40  1955.05  10.70
2031.7  18144.97  1969.79  10.86
2034.3  18142.15  2012.04  11.09
2037.0  18035.71  2015.54  11.18
2039.6  17974.39  2021.85  11.25
2042.3  17908.74  2055.70  11.48
2044.9  17825.78  2075.70  11.64
2047.5  17820.17  2096.27  11.76
2050.2  17715.60  2094.40  11.82
2052.8  17679.20  2114.00  11.96
2055.4  17538.43  2122.73  12.10
2058.1  17416.00  2125.20  12.20
2060.7  17404.47  2152.15  12.37
2063.3  17299.63  2153.16  12.45
2065.9  17230.17  2161.68  12.55
2068.6  17165.96  2190.53  12.76
2071.2  17119.44  2205.96  12.89
2073.8  17041.85  2195.76  12.88
2076.4  16999.98  2210.72  13.00
2079.0  17011.74  2251.75  13.24
2081.6  16984.09  2260.98  13.31
2084.2  16930.00  2288.37  13.52
2086.8  16834.24  2286.24  13.58
2089.4  16742.01  2274.06  13.58
2092.1  16637.33  2304.44  13.85
2094.7  16574.28  2301.44  13.89
2097.2  16549.50  2313.89  13.98
2099.8  16541.98  2341.86  14.16
2102.4  16400.35  2336.27  14.25
2105.0  16267.80  2333.20  14.34
2107.6  16238.35  2346.08  14.45
2110.2  16217.39  2363.32  14.57
2112.8  16200.74  2361.30  14.58
2115.3  16182.65  2387.27  14.75
2117.9  16188.40  2407.42  14.87
2120.5  16181.17  2394.19  14.80
2123.1  16113.83  2408.25  14.95
2125.6  16056.05  2422.71  15.09
2128.2  15953.26  2410.60  15.11
2130.8  15859.35  2423.85  15.28
2133.3  15825.33  2430.76  15.36
2135.9  15723.21  2427.86  15.44
2138.4  15584.92  2420.19  15.53
2141.0  15487.96  2408.46  15.55
2143.6  15482.13  2411.78  15.58
2146.1  15358.67  2404.54  15.66
2148.7  15182.57  2400.24  15.81
2151.2  15188.80  2416.09  15.91
2153.8  15199.37  2429.23  15.98
2156.3  15064.95  2423.70  16.09
2158.8  14994.07  2418.78  16.13
2161.4  14983.43  2431.39  16.23
2163.9  14894.98  2428.45  16.30
2166.4  14806.99  2414.61  16.31
2169.0  14777.42  2424.47  16.41
2171.5  14688.72  2421.51  16.49
2174.0  14586.43  2409.75  16.52
2176.5  14576.25  2416.92  16.58
2179.1  14537.32  2420.38  16.65
2181.6  14435.75  2409.00  16.69
2184.1  14405.16  2424.99  16.83
2186.6  14458.30  2443.72  16.90
2189.1  14358.33  2438.53  16.98
2191.6  14308.00  2443.47  17.08
2194.1  14339.64  2430.35  16.95
2196.6  14340.73  2426.35  16.92
2199.2  14399.84  2463.93  17.11
2201.7  14323.09  2446.28  17.08
2204.1  14264.18  2444.56  17.14
2206.6  14278.44  2471.75  17.31
2209.1  14246.74  2458.99  17.26
2211.6  14236.93  2451.49  17.22
2214.1  14172.61  2449.54  17.28
2216.6  14103.21  2447.39  17.35
2219.1  14137.40  2458.79  17.39
2221.6  14080.86  2454.03  17.43
2224.0  14024.61  2418.08  17.24
2226.5  13983.38  2403.49  17.19
2229.0  13981.89  2408.35  17.22
2231.5  13918.22  2382.26  17.12
2233.9  13896.33  2373.14  17.08
2236.4  13868.98  2361.03  17.02
2238.9  13826.00  2331.46  16.86
2241.3  13828.76  2309.98  16.70
2243.8  13758.80  2300.91  16.72
2246.2  13610.98  2249.76  16.53
2248.7  13571.61  2209.87  16.28
2251.2  13563.12  2213.76  16.32
2253.6  13482.24  2192.64  16.26
2256.1  13474.56  2138.88  15.87
2258.5  13495.78  2103.95  15.59
2260.9  13407.16  2093.91  15.62
2263.4  13372.75  2081.66  15.57
2265.8  13367.17  2059.25  15.41
2268.3  13288.30  2033.20  15.30
2270.7  13342.05  2011.29  15.07
2273.1  13272.94  1985.25  14.96
2275.6  13194.24  1954.56  14.81
2278.0  13232.60  1929.35  14.58
2280.4  13249.81  1928.02  14.55
2282.8  13117.21  1897.12  14.46
2285.3  13103.68  1879.36  14.34
2287.7  13191.09  1857.48  14.08
2290.1  13097.39  1819.85  13.89
2292.5  13047.88  1784.43  13.68
2294.9  13056.31  1769.03  13.55
2297.3  12972.40  1744.16  13.45
2299.7  12875.52  1707.00  13.26
2302.1  12826.01  1711.45  13.34
2304.5  12696.88  1686.91  13.29
2306.9  12602.80  1647.71  13.07
2309.3  12519.08  1633.94  13.05
2311.7  12473.65  1607.95  12.89
2314.1  12315.17  1584.52  12.87
2316.5  12229.76  1589.13  12.99
2318.9  12290.12  1566.16  12.74
2321.3  12265.32  1559.58  12.72
2323.7  12235.57  1582.69  12.94
2326.1  12214.93  1547.52  12.67
2328.4  12270.09  1520.20  12.39
2330.8  12319.08  1532.39  12.44
2333.2  12235.57  1504.57  12.30
2335.6  12168.54  1464.16  12.03
2337.9  12202.83  1467.62  12.03
2340.3  12141.58  1448.43  11.93
2342.7  12039.09  1393.63  11.58
2345.0  12013.82  1399.98  11.65
2347.4  11993.50  1399.67  11.67
2349.7  11798.34  1354.12  11.48
2352.1  11775.76  1336.53  11.35
2354.4  11820.42  1348.25  11.41
2356.8  11728.38  1315.14  11.21
2359.2  11704.33  1298.55  11.09
2361.5  11645.74  1288.64  11.07
2363.8  11633.53  1269.19  10.91
2366.2  11660.03  1275.45  10.94
2368.5  11627.85  1257.87  10.82
2370.9  11603.83  1219.73  10.51
2373.2  11533.95  1206.60  10.46
2375.5  11398.48  1191.59  10.45
2377.9  11373.04  1182.13  10.39
2380.2  11408.35  1186.65  10.40
2382.5  11308.30  1162.54  10.28
2384.8  11261.28  1138.35  10.11
2387.2  11252.00  1123.64  9.99
2389.5  11242.29  1115.89  9.93
2391.8  11232.13  1094.85  9.75
2394.1  11132.13  1062.03  9.54
2396.4  11089.46  1041.85  9.39
2398.7  11160.99  1045.79  9.37
2401.0  11096.58  1043.40  9.40
2403.3  10926.12  1019.24  9.33
2405.6  10921.36  1014.66  9.29
2407.9  10891.74  1012.02  9.29
2410.2  10793.71  979.27  9.07
2412.5  10752.81  951.97  8.85
2414.8  10737.29  943.13  8.78
2417.1  10694.97  946.31  8.85
2419.4  10638.82  911.75  8.57
2421.7  10597.44  907.65  8.56
2424.0  10571.95  899.93  8.51
2426.2  10576.95  857.78  8.11
2428.5  10508.39  895.98  8.53
2430.8  10485.80  881.08  8.40
2433.1  10443.79  813.16  7.79
2435.4  10361.94  818.74  7.90
2437.6  10328.37  809.41  7.84
2439.9  10224.92  776.74  7.60
2442.2  10193.49  802.06  7.87
2444.4  10223.13  779.18  7.62
2446.7  10173.28  720.27  7.08
2448.9  10197.11  740.21  7.26
2451.2  10173.72  721.16  7.09
2453.4  10028.37  677.00  6.75
2455.7  9998.26  735.88  7.36
2457.9  9908.42  740.74  7.48
2460.2  9870.17  694.59  7.04
2462.4  9896.64  713.44  7.21
2464.7  9834.69  685.51  6.97
2466.9  9751.98  661.26  6.78
2469.2  9722.50  658.97  6.78
2471.4  9624.29  632.43  6.57
2473.6  9553.77  631.56  6.61
2475.9  9536.85  634.44  6.65
2478.1  9427.70  612.57  6.50
2480.3  9377.37  591.74  6.31
2482.5  9321.43  595.69  6.39
2484.8  9240.44  558.26  6.04
2487.0  9258.33  545.63  5.89
2489.2  9302.30  582.96  6.27
2491.4  9183.58  573.82  6.25
2493.6  9147.34  556.52  6.08
2495.8  9177.35  570.12  6.21
2498.0  9103.79  545.85  6.00
2500.2  9132.70  519.54  5.69
2502.4  9403.92  574.24  6.11
2504.6  9512.07  588.44  6.19
2506.8  9585.80  565.02  5.89
