/*** Spectra Vista SIG Data ***/
name= CF.sig
comm= Averaged Ref/Tar of files: CF1,CF2,CF3
data=
346.4  509.60  89.39  17.54
347.9  536.51  88.06  16.41
349.5  577.20  89.02  15.42
351.1  620.88  90.27  14.54
352.6  679.94  86.44  12.71
354.2  723.22  94.03  13.00
355.7  777.89  97.43  12.52
357.3  842.60  103.33  12.26
358.8  838.80  101.12  12.06
360.4  904.00  104.35  11.54
361.9  943.76  108.42  11.49
363.5  997.20  107.11  10.74
365.1  1040.25  108.88  10.47
366.6  1087.54  106.80  9.82
368.2  1161.70  111.47  9.60
369.7  1204.79  106.87  8.87
371.3  1287.37  108.65  8.44
372.8  1354.56  113.99  8.42
374.4  1435.13  113.92  7.94
375.9  1463.02  115.63  7.90
377.4  1512.41  112.10  7.41
379.0  1578.52  117.75  7.46
380.5  1618.77  116.54  7.20
382.1  1669.58  114.85  6.88
383.6  1726.52  113.78  6.59
385.2  1809.50  115.13  6.36
386.7  1900.67  115.34  6.07
388.3  1991.93  122.65  6.16
389.8  2077.97  124.07  5.97
391.3  2163.95  125.88  5.82
392.9  2236.17  128.02  5.73
394.4  2293.88  136.31  5.94
395.9  2364.42  141.09  5.97
397.5  2493.56  151.38  6.07
399.0  2617.23  147.08  5.62
400.6  2691.33  138.86  5.16
402.1  2739.96  137.77  5.03
403.6  2797.88  136.02  4.86
405.1  2865.39  135.58  4.73
406.7  2979.20  140.52  4.72
408.2  3089.54  141.97  4.60
409.7  3183.04  148.29  4.66
411.3  3295.62  150.09  4.55
412.8  3391.47  158.31  4.67
414.3  3507.27  162.03  4.62
415.8  3622.50  167.50  4.62
417.4  3739.34  175.25  4.69
418.9  3830.42  175.25  4.58
420.4  3913.23  180.13  4.60
421.9  3978.48  183.11  4.60
423.5  4044.22  183.22  4.53
425.0  4110.68  184.89  4.50
426.5  4198.95  188.63  4.49
428.0  4314.36  190.06  4.41
429.5  4445.73  196.58  4.42
431.1  4599.50  203.56  4.43
432.6  4769.72  207.89  4.36
434.1  4937.63  212.39  4.30
435.6  5085.18  219.43  4.32
437.1  5233.80  227.11  4.34
438.6  5364.45  234.36  4.37
440.1  5501.44  239.88  4.36
441.6  5653.06  247.78  4.38
443.1  5799.60  254.75  4.39
444.7  5941.01  262.49  4.42
446.2  6051.88  267.76  4.42
447.7  6161.82  276.88  4.49
449.2  6292.08  282.53  4.49
450.7  6396.00  284.82  4.45
452.2  6529.70  288.72  4.42
453.7  6647.26  292.29  4.40
455.2  6815.62  297.49  4.36
456.7  7013.60  304.36  4.34
458.2  7232.90  316.18  4.37
459.7  7456.75  324.10  4.35
461.2  7667.16  334.53  4.36
462.7  7858.10  343.44  4.37
464.2  8041.02  351.60  4.37
465.7  8240.35  358.73  4.35
467.2  8402.63  367.04  4.37
468.7  8584.00  378.40  4.41
470.2  8698.25  388.74  4.47
471.7  8877.75  399.79  4.50
473.2  9159.71  413.17  4.51
474.6  9386.40  417.75  4.45
476.1  9450.96  418.20  4.42
477.6  9499.75  421.39  4.44
479.1  9557.87  420.06  4.39
480.6  9632.82  423.66  4.40
482.1  9760.73  430.64  4.41
483.6  9935.74  437.62  4.40
485.1  10133.78  450.46  4.45
486.6  10366.07  459.00  4.43
488.0  10621.00  470.93  4.43
489.5  10873.80  485.90  4.47
491.0  11134.31  501.70  4.51
492.5  11404.80  518.29  4.54
494.0  11683.71  534.65  4.58
495.4  11917.95  553.52  4.64
496.9  12154.26  570.03  4.69
498.4  12387.41  588.31  4.75
499.9  12623.63  606.62  4.81
501.4  12839.71  630.06  4.91
502.8  13042.06  650.27  4.99
504.3  13226.40  669.48  5.06
505.8  13406.54  689.45  5.14
507.2  13518.16  712.52  5.27
508.7  13603.31  731.58  5.38
510.2  13672.60  752.75  5.51
511.6  13715.26  769.71  5.61
513.1  13806.21  793.88  5.75
514.6  13898.29  817.68  5.88
516.0  13992.63  842.17  6.02
517.5  14151.40  872.38  6.16
519.0  14339.95  903.28  6.30
520.5  14520.56  936.44  6.45
521.9  14760.83  974.17  6.60
523.4  15031.28  1014.00  6.75
524.8  15295.25  1054.55  6.89
526.3  15594.01  1097.39  7.04
527.8  15909.50  1142.00  7.18
529.2  16189.50  1184.44  7.32
530.7  16509.28  1230.20  7.45
532.1  16791.25  1270.59  7.57
533.6  17121.20  1316.00  7.69
535.0  17454.94  1360.13  7.79
536.5  17789.22  1405.41  7.90
538.0  18136.88  1452.99  8.01
539.4  18461.69  1499.23  8.12
540.9  18864.39  1555.25  8.24
542.3  19206.33  1605.89  8.36
543.8  19460.81  1650.18  8.48
545.2  19544.37  1680.41  8.60
546.6  19566.05  1703.91  8.71
548.1  19604.97  1729.89  8.82
549.5  19640.65  1753.66  8.93
551.0  19664.79  1776.80  9.04
552.4  19724.92  1804.04  9.15
553.9  19761.60  1828.43  9.25
555.3  19812.20  1851.88  9.35
556.8  19934.49  1876.15  9.41
558.2  20047.50  1899.90  9.48
559.6  20200.16  1926.27  9.54
561.1  20397.00  1954.12  9.58
562.5  20617.77  1982.29  9.61
564.0  20901.40  2014.22  9.64
565.4  21161.13  2040.16  9.64
566.8  21482.31  2070.83  9.64
568.3  21793.28  2099.60  9.63
569.7  22118.60  2125.72  9.61
571.1  22425.71  2149.81  9.59
572.6  22741.56  2173.07  9.56
574.0  23030.70  2192.96  9.52
575.4  23309.44  2215.24  9.50
576.9  23581.06  2234.00  9.47
578.3  23822.01  2252.73  9.46
579.7  24048.22  2268.91  9.43
581.1  24227.75  2280.22  9.41
582.6  24429.78  2298.10  9.41
584.0  24600.48  2310.80  9.39
585.4  24853.74  2330.30  9.38
586.8  25196.68  2361.53  9.37
588.3  25573.86  2396.78  9.37
589.7  25896.78  2425.80  9.37
591.1  26104.75  2445.95  9.37
592.5  26211.06  2456.47  9.37
594.0  26269.26  2461.39  9.37
595.4  26286.44  2463.84  9.37
596.8  26295.56  2465.32  9.38
598.2  26315.92  2462.65  9.36
599.6  26317.98  2462.20  9.36
601.0  26398.05  2461.79  9.33
602.4  26470.93  2460.85  9.30
603.9  26597.64  2458.49  9.24
605.3  26727.57  2455.37  9.19
606.7  26857.80  2448.12  9.12
608.1  27088.39  2448.59  9.04
609.5  27333.21  2448.53  8.96
610.9  27623.29  2452.64  8.88
612.3  27891.32  2451.93  8.79
613.7  28252.28  2461.75  8.71
615.1  28513.62  2459.38  8.63
616.5  28776.05  2460.57  8.55
617.9  29165.50  2478.96  8.50
619.3  29543.24  2495.88  8.45
620.7  29990.55  2523.71  8.42
622.1  30437.05  2549.83  8.38
623.5  30934.60  2580.06  8.34
624.9  31494.75  2620.77  8.32
626.3  31867.36  2647.10  8.31
627.7  31569.69  2626.68  8.32
629.1  31287.59  2598.56  8.31
630.5  31184.65  2587.37  8.30
631.9  31222.21  2588.42  8.29
633.3  31256.33  2584.08  8.27
634.7  31400.48  2584.28  8.23
636.1  31461.82  2569.41  8.17
637.5  31554.77  2556.28  8.10
638.9  31702.82  2544.22  8.03
640.2  31825.04  2533.64  7.96
641.6  31863.78  2500.68  7.85
643.0  31847.61  2448.94  7.69
644.4  31829.55  2403.78  7.55
645.8  31751.71  2367.75  7.46
647.2  31867.94  2355.06  7.39
648.5  31926.34  2342.16  7.34
649.9  31776.23  2312.76  7.28
651.3  31648.05  2297.21  7.26
652.7  31449.15  2265.42  7.20
654.1  31244.46  2195.30  7.03
655.5  31005.95  2122.11  6.84
656.8  30780.41  2046.62  6.65
658.2  30925.42  2000.90  6.47
659.6  31264.45  1969.88  6.30
660.9  31536.04  1941.63  6.16
662.3  31822.64  1912.94  6.01
663.7  32096.40  1889.16  5.89
665.0  32332.90  1866.20  5.77
666.4  32562.99  1853.68  5.69
667.8  32863.56  1846.21  5.62
669.1  33114.69  1846.23  5.58
670.5  33405.09  1858.40  5.56
671.9  33586.56  1868.10  5.56
673.2  33844.75  1892.03  5.59
674.6  34082.18  1923.34  5.64
676.0  34372.41  1963.49  5.71
677.3  34659.68  2016.37  5.82
678.7  34979.63  2072.59  5.93
680.0  35399.92  2153.16  6.08
681.4  35845.89  2251.35  6.28
682.8  36270.33  2370.85  6.54
684.1  36705.24  2517.21  6.86
685.5  37104.21  2690.32  7.25
686.8  37507.62  2894.11  7.72
688.2  37862.83  3131.63  8.27
689.5  38000.96  3389.88  8.92
690.9  38124.79  3684.08  9.66
692.2  38229.60  4009.96  10.49
693.6  38334.37  4381.68  11.43
694.9  38335.34  4765.96  12.43
696.2  38393.33  5179.83  13.49
697.6  38453.39  5614.96  14.60
698.9  38522.88  6070.06  15.76
700.3  38613.54  6520.85  16.89
701.6  38716.02  6972.99  18.01
703.0  38828.83  7410.90  19.09
704.3  38882.19  7827.45  20.13
705.6  38895.39  8223.99  21.14
707.0  38949.12  8603.90  22.09
708.3  38885.46  8949.04  23.01
709.6  38817.35  9273.88  23.89
711.0  38702.88  9560.70  24.70
712.3  38573.15  9835.90  25.50
713.6  38531.64  10102.23  26.22
714.9  38462.14  10364.01  26.95
716.3  38461.08  10615.78  27.60
717.6  38479.84  10866.90  28.24
718.9  38424.85  11074.02  28.82
720.2  38251.08  11238.94  29.38
721.6  38113.53  11399.88  29.91
722.9  37945.16  11550.31  30.44
724.2  37714.27  11673.22  30.95
725.5  37534.96  11806.55  31.45
726.8  37360.68  11915.19  31.89
728.1  37271.09  12034.66  32.29
729.5  37167.13  12153.65  32.70
730.8  37093.13  12279.15  33.10
732.1  36996.92  12389.40  33.49
733.4  36936.39  12509.75  33.87
734.7  36864.47  12604.94  34.19
736.0  36851.62  12723.78  34.53
737.3  36774.45  12821.18  34.86
738.6  36845.76  12960.91  35.18
739.9  37000.34  13133.83  35.50
741.2  37119.81  13273.08  35.76
742.5  37372.03  13458.18  36.01
743.8  37768.50  13708.89  36.30
745.1  38387.22  14042.19  36.58
746.4  39127.73  14410.43  36.83
747.7  39918.22  14781.17  37.03
749.0  40672.12  15130.07  37.20
750.3  41122.66  15339.07  37.30
751.6  41047.35  15371.89  37.45
752.9  40630.59  15297.02  37.65
754.2  40176.47  15203.89  37.84
755.4  39652.21  15125.41  38.15
756.7  39478.17  15154.23  38.39
758.0  39495.60  15260.05  38.64
759.3  39730.28  15453.41  38.90
760.6  40061.56  15683.57  39.15
761.9  40384.10  15892.81  39.35
763.1  40567.56  16033.79  39.52
764.4  40796.65  16198.25  39.70
765.7  40953.25  16336.45  39.89
767.0  41079.80  16464.28  40.08
768.2  41207.04  16584.29  40.25
769.5  41279.98  16698.59  40.45
770.8  41469.61  16829.76  40.58
772.0  41501.32  16915.56  40.76
773.3  41583.65  17018.50  40.93
774.6  41708.58  17125.11  41.06
775.8  41815.15  17211.19  41.16
777.1  41846.51  17286.16  41.31
778.4  41799.94  17330.01  41.46
779.6  41775.90  17387.37  41.62
780.9  41704.00  17430.13  41.79
782.1  41523.21  17439.80  42.00
783.4  41558.40  17496.68  42.10
784.6  41567.36  17569.12  42.27
785.9  41861.56  17761.80  42.43
787.1  42409.87  18083.08  42.64
788.4  42854.47  18303.36  42.71
789.6  42849.18  18278.04  42.66
790.9  42483.96  18099.90  42.60
792.1  42011.92  17965.88  42.76
793.4  41570.15  17839.92  42.92
794.6  41283.15  17759.52  43.02
795.8  41024.39  17699.52  43.14
797.1  40758.68  17644.56  43.29
798.3  40551.64  17626.68  43.47
799.5  40444.72  17635.94  43.61
800.8  40323.21  17633.31  43.73
802.0  40187.32  17630.71  43.87
803.2  40033.64  17611.73  43.99
804.5  39942.72  17609.41  44.09
805.7  39829.66  17602.18  44.19
806.9  39715.93  17599.24  44.31
808.1  39632.97  17615.66  44.45
809.4  39553.39  17647.25  44.62
810.6  39489.45  17669.77  44.75
811.8  39474.39  17719.35  44.89
813.0  39504.71  17792.63  45.04
814.2  39525.61  17872.72  45.22
815.4  39644.33  17970.28  45.33
816.6  39709.73  18047.35  45.45
817.9  39791.57  18102.81  45.49
819.1  39719.87  18115.69  45.61
820.3  39621.11  18114.88  45.72
821.5  39546.25  18126.14  45.84
822.7  39480.04  18161.56  46.00
823.9  39499.25  18221.20  46.13
825.1  39541.96  18280.43  46.23
826.3  39583.35  18348.97  46.36
827.5  39640.56  18429.50  46.49
828.7  39708.48  18503.87  46.60
829.9  39767.03  18586.91  46.74
831.0  39870.82  18691.85  46.88
832.2  39993.87  18794.47  46.99
833.4  40076.64  18887.91  47.13
834.6  40148.44  18982.50  47.28
835.8  40238.10  19084.59  47.43
837.0  40328.28  19199.68  47.61
838.1  40500.72  19328.45  47.72
839.3  40601.19  19424.48  47.84
840.5  40716.87  19533.98  47.98
841.7  40854.11  19667.98  48.14
842.9  40980.73  19822.99  48.37
844.0  41100.82  19939.89  48.51
845.2  41245.09  20071.73  48.66
846.4  41368.25  20194.51  48.82
847.5  41564.18  20350.92  48.96
848.7  41743.64  20488.52  49.08
849.9  41936.76  20602.58  49.13
851.0  42020.98  20658.62  49.16
852.2  42107.61  20715.91  49.20
853.3  42066.96  20742.49  49.31
854.5  42098.11  20774.23  49.35
855.6  42095.43  20822.39  49.46
856.8  42111.00  20882.29  49.59
857.9  42111.88  20915.91  49.67
859.1  42240.60  21010.97  49.74
860.2  42245.56  21059.77  49.85
861.4  42273.83  21126.09  49.97
862.5  42309.54  21186.63  50.08
863.7  42384.63  21245.63  50.13
864.8  42387.10  21295.96  50.24
865.9  42333.82  21310.85  50.34
867.1  42372.33  21348.68  50.38
868.2  42368.54  21393.31  50.49
869.3  42393.50  21420.86  50.53
870.5  42342.80  21423.17  50.59
871.6  42318.48  21468.65  50.73
872.7  42385.23  21533.24  50.80
873.9  42404.90  21566.11  50.86
875.0  42391.36  21585.93  50.92
876.1  42363.75  21613.73  51.02
877.2  42397.32  21650.08  51.06
878.3  42381.77  21664.27  51.12
879.4  42397.70  21709.98  51.21
880.5  42451.56  21755.42  51.25
881.7  42410.55  21769.45  51.33
882.8  42454.72  21797.10  51.34
883.9  42482.63  21814.35  51.35
885.0  42446.04  21779.62  51.31
886.1  42420.10  21765.69  51.31
887.2  42295.80  21690.29  51.28
888.3  42201.80  21629.36  51.25
889.4  42117.30  21585.60  51.25
890.5  42026.34  21572.98  51.33
891.6  41981.69  21544.53  51.32
892.7  41962.31  21549.94  51.36
893.8  41981.79  21602.31  51.46
894.9  41952.35  21621.06  51.54
896.0  41968.71  21620.96  51.52
897.0  41952.48  21642.83  51.59
898.1  41951.64  21661.55  51.63
899.2  41983.30  21673.78  51.62
900.3  41907.57  21644.58  51.65
901.4  41820.39  21632.97  51.73
902.4  41828.99  21647.16  51.75
903.5  41775.96  21632.73  51.78
904.6  41798.96  21666.46  51.83
905.7  41805.42  21659.75  51.81
906.7  41815.90  21670.40  51.82
907.8  41839.20  21713.13  51.90
908.9  41746.38  21674.56  51.92
909.9  41734.69  21662.99  51.91
911.0  41681.88  21652.35  51.95
912.1  41602.05  21621.92  51.97
913.1  41535.52  21589.78  51.98
914.2  41457.24  21566.50  52.02
915.2  41368.59  21573.74  52.15
916.3  41436.15  21584.72  52.09
917.3  41410.15  21593.08  52.14
918.4  41310.50  21560.15  52.19
919.4  41328.17  21545.71  52.13
920.5  41309.67  21547.69  52.16
921.5  41323.66  21552.55  52.16
922.6  41255.80  21525.62  52.18
923.6  41303.54  21553.19  52.18
924.7  41344.50  21575.25  52.18
925.7  41333.16  21575.92  52.20
926.7  41356.90  21592.61  52.21
927.8  41415.30  21612.35  52.18
928.8  41570.85  21670.55  52.13
929.9  41658.93  21725.20  52.15
930.9  41879.39  21831.78  52.13
931.9  42070.56  21940.97  52.15
932.9  42412.10  22107.95  52.13
934.0  42452.50  22105.46  52.07
935.0  42440.57  22136.96  52.16
936.0  42488.02  22135.94  52.10
937.0  42429.47  22125.49  52.15
938.1  42380.86  22137.27  52.23
939.1  42337.65  22141.84  52.30
940.1  42429.30  22170.88  52.25
941.1  42615.86  22303.61  52.34
942.1  42903.92  22413.02  52.24
943.1  43057.09  22513.97  52.29
944.1  43342.63  22641.20  52.24
945.2  43356.60  22640.04  52.22
946.2  43482.48  22687.58  52.18
947.2  43549.00  22741.07  52.22
948.2  43743.16  22813.89  52.15
949.2  43840.88  22847.72  52.12
950.2  43906.25  22862.16  52.07
951.2  44010.96  22920.35  52.08
952.2  44061.91  22942.80  52.07
953.2  44318.14  23008.37  51.92
954.2  44380.80  23074.80  51.99
955.2  44428.35  23051.95  51.89
956.2  44460.20  23051.47  51.85
957.2  44542.35  23068.36  51.79
958.2  44649.94  23082.72  51.70
959.2  44705.25  23131.29  51.74
960.1  44813.66  23165.35  51.69
961.1  44928.76  23225.09  51.69
962.1  44958.75  23229.88  51.67
963.1  44986.01  23275.00  51.74
964.1  45106.16  23310.76  51.68
965.1  45270.70  23391.14  51.67
966.1  45207.41  23405.03  51.77
967.0  45355.66  23482.98  51.78
968.0  45441.48  23496.81  51.71
969.0  45453.60  23535.72  51.78
970.0  45557.64  23601.39  51.81
971.0  45615.57  23626.53  51.79
971.9  45699.86  23666.31  51.79
972.9  45781.93  23700.71  51.77
973.9  45829.88  23723.70  51.76
974.9  45973.78  23770.62  51.70
975.8  45979.65  23776.97  51.71
976.8  46106.16  23842.02  51.71
977.8  46097.80  23871.89  51.79
978.8  46103.70  23884.94  51.81
979.7  46387.55  23979.74  51.69
980.7  46405.76  24065.78  51.86
981.7  46694.84  24176.39  51.78
982.6  46857.76  24398.68  52.07
983.6  47433.79  24583.39  51.83
984.6  47818.98  24766.85  51.79
985.5  48063.24  25143.24  52.31
986.5  48770.77  25405.06  52.09
987.5  50043.63  25889.48  51.73
988.4  50895.90  26248.20  51.57
989.4  52431.75  26573.74  50.68
990.4  53425.02  27043.38  50.62
991.3  55387.31  27665.25  49.95
992.3  55950.90  28158.04  50.33
993.2  58118.31  28812.32  49.58
994.2  59457.94  28860.30  48.54
995.2  60710.63  29189.60  48.08
996.1  61737.77  29279.59  47.43
997.1  61885.85  29075.49  46.98
998.0  61668.00  29029.64  47.07
999.0  61787.86  28713.89  46.47
1000.0  62252.49  28551.14  45.86
1000.9  62564.91  28672.30  45.83
1001.9  61626.12  28380.45  46.05
1002.8  61885.09  28182.80  45.54
1003.8  61970.58  27872.21  44.98
1004.8  62064.96  27959.66  45.05
961.5  55881.62  26136.10  46.77
965.5  54589.44  25730.96  47.14
969.5  52393.79  25219.48  48.13
973.4  50126.74  24702.74  49.28
977.4  48345.52  24197.37  50.05
981.4  47464.01  24060.42  50.69
985.3  47176.98  24016.81  50.91
989.3  47304.75  24061.11  50.86
993.3  47508.66  24102.62  50.73
997.2  47541.75  24043.01  50.57
1001.2  47520.33  24009.35  50.52
1005.2  47455.76  24021.71  50.62
1009.1  47529.68  24138.76  50.79
1013.1  47663.39  24320.42  51.03
1017.1  47785.75  24447.85  51.16
1021.0  47816.50  24498.85  51.24
1025.0  47819.30  24525.54  51.29
1029.0  47652.00  24484.83  51.38
1032.9  47495.63  24464.70  51.51
1036.9  47497.16  24517.25  51.62
1040.9  47608.97  24629.91  51.73
1044.8  47827.54  24795.21  51.84
1048.8  48004.98  24948.05  51.97
1052.7  48133.54  25066.74  52.08
1056.7  48188.20  25123.12  52.14
1060.7  48194.60  25156.89  52.20
1064.6  48198.22  25205.31  52.30
1068.6  48113.17  25183.72  52.34
1072.5  48026.55  25152.92  52.37
1076.5  47975.49  25157.88  52.44
1080.4  47966.69  25155.69  52.44
1084.4  48069.59  25191.49  52.41
1088.3  48170.15  25234.99  52.39
1092.3  48152.58  25201.67  52.34
1096.2  48142.77  25174.05  52.29
1100.2  48183.64  25175.03  52.25
1104.1  48079.94  25100.31  52.21
1108.1  48035.13  25052.32  52.15
1112.0  47943.86  24960.50  52.06
1116.0  47742.57  24785.22  51.91
1119.9  47581.47  24603.21  51.71
1123.9  47666.30  24528.67  51.46
1127.8  47639.04  24378.88  51.17
1131.8  47617.38  24188.42  50.80
1135.7  47659.94  23971.73  50.30
1139.6  47675.62  23684.90  49.68
1143.6  47638.82  23360.34  49.04
1147.5  47616.88  23039.05  48.38
1151.4  47500.80  22700.19  47.79
1155.4  47513.75  22500.78  47.36
1159.3  47522.52  22369.88  47.07
1163.2  47363.89  22185.39  46.84
1167.2  47347.50  22084.88  46.64
1171.1  47369.57  22021.18  46.49
1175.0  47314.40  21931.62  46.35
1179.0  47268.08  21853.41  46.23
1182.9  47358.68  21836.78  46.11
1186.8  47350.70  21778.93  45.99
1190.7  47139.70  21618.17  45.86
1194.7  46883.87  21458.88  45.77
1198.6  46652.76  21342.09  45.75
1202.5  46480.48  21277.79  45.78
1206.4  46340.80  21244.55  45.84
1210.3  46236.01  21241.98  45.94
1214.2  46114.66  21257.69  46.10
1218.2  45952.68  21263.25  46.27
1222.1  45800.88  21279.86  46.46
1226.0  45686.61  21312.03  46.65
1229.9  45598.02  21339.92  46.80
1233.8  45484.04  21339.85  46.92
1237.7  45416.66  21344.84  47.00
1241.6  45332.53  21340.97  47.08
1245.5  45166.97  21298.05  47.15
1249.4  45023.84  21259.51  47.22
1253.3  44894.25  21220.43  47.27
1257.2  44816.00  21203.33  47.31
1261.1  44716.86  21163.35  47.33
1265.0  44587.73  21098.85  47.32
1268.9  44400.64  21003.95  47.31
1272.8  44460.00  21012.10  47.26
1276.7  44653.74  21081.27  47.21
1280.6  44733.81  21095.76  47.16
1284.5  44649.07  21013.20  47.06
1288.4  44631.63  20941.97  46.92
1292.3  44511.50  20810.17  46.75
1296.2  44360.33  20658.06  46.57
1300.1  44197.71  20474.20  46.32
1303.9  43963.66  20224.24  46.00
1307.8  43715.49  19956.35  45.65
1311.7  43464.03  19676.06  45.27
1315.6  43214.30  19378.98  44.84
1319.5  42962.15  19045.94  44.33
1323.3  42734.84  18703.58  43.77
1327.2  42525.95  18351.14  43.15
1331.1  42285.13  17966.68  42.49
1335.0  41985.32  17548.12  41.80
1338.8  41775.29  17160.96  41.08
1342.7  41609.18  16778.52  40.32
1346.5  41242.98  16302.42  39.53
1350.4  40931.78  15833.04  38.68
1354.3  40517.39  15330.59  37.84
1358.1  40047.65  14853.15  37.09
1362.0  39764.09  14482.83  36.42
1365.8  39670.89  14206.50  35.81
1369.7  39786.92  13972.38  35.12
1373.5  39741.56  13556.20  34.11
1377.4  39487.75  12908.59  32.69
1381.2  39276.49  12156.40  30.95
1385.1  39242.56  11415.25  29.09
1389.0  39129.70  10598.74  27.09
1392.8  38925.66  9693.95  24.90
1396.6  38773.68  8820.64  22.75
1400.5  38560.99  8001.05  20.75
1404.3  38397.74  7294.92  19.00
1408.2  38363.03  6722.70  17.52
1412.0  38325.01  6255.02  16.32
1415.8  38359.09  5907.83  15.40
1419.6  38319.36  5623.99  14.68
1423.5  38299.37  5411.01  14.13
1427.3  38266.05  5249.59  13.72
1431.1  38248.58  5134.38  13.42
1434.9  38159.15  5042.28  13.21
1438.8  38104.90  4989.60  13.09
1442.6  38084.31  4960.66  13.03
1446.4  37958.74  4926.56  12.98
1450.2  37871.04  4920.02  12.99
1454.0  37772.76  4918.72  13.02
1457.8  37752.26  4935.44  13.07
1461.6  37732.17  4969.17  13.17
1465.4  37609.21  5007.12  13.31
1469.2  37426.03  5058.09  13.51
1473.0  37290.43  5137.67  13.78
1476.8  37245.30  5254.58  14.11
1480.7  37186.44  5383.76  14.48
1484.4  37061.40  5514.56  14.88
1488.2  36961.08  5655.92  15.30
1492.0  36836.53  5798.70  15.74
1495.8  36720.78  5941.54  16.18
1499.6  36605.30  6072.01  16.59
1503.4  36479.87  6187.51  16.96
1507.2  36356.05  6303.01  17.34
1510.9  36204.04  6421.38  17.74
1514.7  36047.88  6546.75  18.16
1518.5  35919.58  6671.41  18.57
1522.3  35781.38  6780.87  18.95
1526.0  35674.52  6891.41  19.32
1529.8  35609.17  7020.32  19.71
1533.6  35484.33  7132.56  20.10
1537.3  35352.32  7229.41  20.45
1541.1  35225.58  7339.57  20.84
1544.8  35097.60  7455.20  21.24
1548.6  34949.35  7570.19  21.66
1552.4  34850.72  7678.81  22.03
1556.1  34790.76  7756.99  22.30
1559.9  34705.82  7810.82  22.51
1563.6  34578.39  7870.96  22.76
1567.3  34459.02  7949.94  23.07
1571.1  34243.92  8001.39  23.37
1574.8  34100.68  8059.31  23.63
1578.6  34000.34  8123.18  23.89
1582.3  33854.52  8172.77  24.14
1586.0  33716.51  8220.68  24.38
1589.8  33582.95  8259.80  24.60
1593.5  33431.04  8295.71  24.81
1597.2  33294.67  8333.87  25.03
1600.9  33154.19  8363.24  25.23
1604.7  33000.40  8388.07  25.42
1608.4  32856.34  8423.41  25.64
1612.1  32695.22  8451.35  25.85
1615.8  32545.96  8469.92  26.02
1619.5  32465.11  8500.87  26.18
1623.2  32316.22  8512.57  26.34
1626.9  32130.25  8508.49  26.48
1630.6  31953.68  8506.30  26.62
1634.3  31816.04  8504.11  26.73
1638.0  31668.49  8485.92  26.80
1641.7  31487.82  8451.84  26.84
1645.4  31299.16  8410.92  26.87
1649.1  31105.38  8353.34  26.85
1652.8  30949.76  8289.58  26.78
1656.4  30780.36  8219.43  26.70
1660.1  30613.88  8150.48  26.62
1663.8  30416.03  8080.50  26.57
1667.5  30257.50  8025.56  26.52
1671.1  30134.40  7980.56  26.48
1674.8  29937.06  7927.53  26.48
1678.5  29873.87  7909.19  26.48
1682.1  29892.23  7899.31  26.43
1685.8  29901.92  7875.49  26.34
1689.5  29795.07  7816.02  26.23
1693.1  29653.44  7739.63  26.10
1696.8  29511.75  7646.71  25.91
1700.4  29358.15  7551.73  25.72
1704.0  29237.42  7470.22  25.55
1707.7  28983.16  7347.08  25.35
1711.3  28689.26  7204.93  25.11
1715.0  28479.20  7088.52  24.89
1718.6  28311.14  6988.33  24.68
1722.2  28171.19  6902.93  24.50
1725.9  28024.58  6822.35  24.34
1729.5  27888.80  6747.23  24.19
1733.1  27770.82  6690.81  24.09
1736.7  27655.67  6638.83  24.01
1740.3  27487.42  6557.51  23.86
1744.0  27395.86  6488.37  23.68
1747.5  27255.01  6402.30  23.49
1751.2  27041.09  6297.40  23.29
1754.8  26881.34  6213.72  23.12
1758.4  26750.86  6141.98  22.96
1762.0  26572.85  6071.24  22.85
1765.5  26446.23  6014.71  22.74
1769.1  26402.40  5978.40  22.64
1772.7  26328.38  5939.52  22.56
1776.3  26208.92  5884.56  22.45
1779.9  26081.92  5831.67  22.36
1783.5  26027.60  5802.37  22.29
1787.0  25897.14  5762.70  22.25
1790.6  25747.79  5715.87  22.20
1794.2  25651.68  5684.61  22.16
1797.8  25552.23  5658.03  22.14
1801.3  25471.95  5638.51  22.14
1804.9  25318.13  5605.25  22.14
1808.4  25235.40  5585.33  22.13
1812.0  25102.89  5548.56  22.10
1815.5  24947.72  5508.11  22.08
1819.1  24745.29  5462.32  22.07
1822.6  24588.72  5423.76  22.06
1826.2  24468.62  5385.60  22.01
1829.7  24298.19  5334.55  21.95
1833.2  24066.25  5270.54  21.90
1836.8  23846.10  5200.05  21.81
1840.3  23701.28  5154.17  21.75
1843.8  23605.26  5115.27  21.67
1847.3  23552.23  5081.40  21.58
1850.8  23482.37  5027.90  21.41
1854.3  23328.90  4928.73  21.13
1857.8  23249.20  4801.33  20.65
1861.3  23245.10  4616.93  19.86
1864.8  23154.55  4353.33  18.80
1868.3  22923.75  4003.03  17.46
1871.8  22725.12  3650.56  16.06
1875.3  22663.55  3318.32  14.64
1878.8  22668.35  2995.63  13.22
1882.3  22613.87  2684.11  11.87
1885.8  22446.65  2369.14  10.55
1889.3  22245.45  2090.81  9.40
1892.7  22073.02  1885.90  8.54
1896.2  21956.57  1752.54  7.98
1899.7  21800.31  1667.42  7.65
1903.1  21719.54  1677.37  7.72
1906.6  21807.87  1802.61  8.27
1910.0  22098.88  2036.15  9.21
1913.5  22634.73  2422.17  10.70
1917.0  23151.98  2966.31  12.81
1920.4  23436.08  3497.69  14.92
1923.8  23677.97  3828.93  16.17
1871.2  20787.15  2770.09  13.33
1873.9  20907.54  2627.31  12.57
1876.7  21048.38  2426.36  11.53
1879.5  21252.88  2175.42  10.24
1882.3  20993.42  1894.55  9.02
1885.1  20851.78  1669.41  8.01
1887.8  20921.79  1456.91  6.96
1890.6  20723.54  1265.66  6.11
1893.4  20650.67  1112.22  5.39
1896.2  20581.86  946.69  4.60
1898.9  20516.13  854.30  4.16
1901.7  20380.18  779.86  3.83
1904.5  20546.36  733.55  3.57
1907.2  20463.00  693.50  3.39
1910.0  20358.58  648.50  3.19
1912.7  20364.96  633.86  3.11
1915.5  20273.08  612.17  3.02
1918.2  20210.43  603.54  2.99
1921.0  20079.87  593.69  2.96
1923.7  20126.73  601.41  2.99
1926.5  20096.89  598.14  2.98
1929.2  20080.15  594.30  2.96
1932.0  20066.00  605.67  3.02
1934.7  20016.92  600.32  3.00
1937.4  19925.11  600.69  3.01
1940.2  19881.39  612.62  3.08
1942.9  19959.98  639.45  3.20
1945.6  19965.22  640.24  3.21
1948.3  19894.11  645.79  3.25
1951.1  19862.99  668.22  3.36
1953.8  19866.00  670.00  3.37
1956.5  19752.03  667.89  3.38
1959.2  19805.76  705.64  3.56
1961.9  19837.86  724.14  3.65
1964.6  19745.08  733.83  3.72
1967.3  19784.70  769.36  3.89
1970.0  19621.84  765.65  3.90
1972.8  19538.55  796.21  4.08
1975.5  19602.81  823.37  4.20
1978.2  19540.64  836.09  4.28
1980.9  19419.73  866.73  4.46
1983.5  19352.05  877.35  4.53
1986.2  19366.05  902.10  4.66
1988.9  19348.59  930.23  4.81
1991.6  19202.00  942.38  4.91
1994.3  19065.89  970.48  5.09
1997.0  19096.32  997.63  5.22
1999.7  19065.00  1007.96  5.29
2002.3  19034.90  1037.52  5.45
2005.0  18965.86  1073.95  5.66
2007.7  18877.00  1073.09  5.68
2010.4  18811.60  1095.37  5.82
2013.0  18774.16  1149.38  6.12
2015.7  18678.28  1161.29  6.22
2018.4  18548.96  1155.47  6.23
2021.0  18504.50  1177.72  6.36
2023.7  18401.60  1210.76  6.58
2026.4  18333.68  1219.61  6.65
2029.0  18267.40  1236.20  6.77
2031.7  18144.97  1248.72  6.88
2034.3  18142.15  1263.74  6.97
2037.0  18035.71  1285.52  7.13
2039.6  17974.39  1293.20  7.19
2042.3  17908.74  1303.07  7.28
2044.9  17825.78  1321.16  7.41
2047.5  17820.17  1329.57  7.46
2050.2  17715.60  1330.00  7.51
2052.8  17679.20  1336.53  7.56
2055.4  17538.43  1342.93  7.66
2058.1  17416.00  1344.00  7.72
2060.7  17404.47  1355.58  7.79
2063.3  17299.63  1373.83  7.94
2065.9  17230.17  1385.60  8.04
2068.6  17165.96  1390.25  8.10
2071.2  17119.44  1403.37  8.20
2073.8  17041.85  1401.03  8.22
2076.4  16999.98  1406.14  8.27
2079.0  17011.74  1410.62  8.29
2081.6  16984.09  1419.79  8.36
2084.2  16930.00  1452.22  8.58
2086.8  16834.24  1448.11  8.60
2089.4  16742.01  1441.03  8.61
2092.1  16637.33  1457.28  8.76
2094.7  16574.28  1463.35  8.83
2097.2  16549.50  1453.50  8.78
2099.8  16541.98  1472.68  8.90
2102.4  16400.35  1475.69  9.00
2105.0  16267.80  1452.55  8.93
2107.6  16238.35  1466.89  9.03
2110.2  16217.39  1486.19  9.16
2112.8  16200.74  1490.84  9.20
2115.3  16182.65  1498.18  9.26
2117.9  16188.40  1518.54  9.38
2120.5  16181.17  1514.83  9.36
2123.1  16113.83  1499.55  9.31
2125.6  16056.05  1512.97  9.42
2128.2  15953.26  1501.38  9.41
2130.8  15859.35  1487.85  9.38
2133.3  15825.33  1513.60  9.56
2135.9  15723.21  1520.84  9.67
2138.4  15584.92  1503.78  9.65
2141.0  15487.96  1508.34  9.74
2143.6  15482.13  1527.40  9.87
2146.1  15358.67  1499.53  9.76
2148.7  15182.57  1479.10  9.74
2151.2  15188.80  1506.75  9.92
2153.8  15199.37  1544.27  10.16
2156.3  15064.95  1542.62  10.24
2158.8  14994.07  1530.81  10.21
2161.4  14983.43  1544.93  10.31
2163.9  14894.98  1554.76  10.44
2166.4  14806.99  1552.25  10.48
2169.0  14777.42  1574.92  10.66
2171.5  14688.72  1568.02  10.67
2174.0  14586.43  1544.03  10.59
2176.5  14576.25  1568.75  10.76
2179.1  14537.32  1580.12  10.87
2181.6  14435.75  1572.54  10.89
2184.1  14405.16  1587.23  11.02
2186.6  14458.30  1599.50  11.06
2189.1  14358.33  1607.14  11.19
2191.6  14308.00  1605.02  11.22
2194.1  14339.64  1603.26  11.18
2196.6  14340.73  1612.29  11.24
2199.2  14399.84  1637.19  11.37
2201.7  14323.09  1630.85  11.39
2204.1  14264.18  1616.27  11.33
2206.6  14278.44  1652.39  11.57
2209.1  14246.74  1670.45  11.73
2211.6  14236.93  1660.97  11.67
2214.1  14172.61  1660.06  11.71
2216.6  14103.21  1658.61  11.76
2219.1  14137.40  1656.07  11.71
2221.6  14080.86  1649.56  11.71
2224.0  14024.61  1642.11  11.71
2226.5  13983.38  1632.35  11.67
2229.0  13981.89  1630.52  11.66
2231.5  13918.22  1611.15  11.58
2233.9  13896.33  1593.21  11.46
2236.4  13868.98  1580.03  11.39
2238.9  13826.00  1564.21  11.31
2241.3  13828.76  1550.78  11.21
2243.8  13758.80  1517.09  11.03
2246.2  13610.98  1489.93  10.95
2248.7  13571.61  1482.25  10.92
2251.2  13563.12  1450.22  10.69
2253.6  13482.24  1422.08  10.55
2256.1  13474.56  1404.16  10.42
2258.5  13495.78  1380.44  10.23
2260.9  13407.16  1355.03  10.11
2263.4  13372.75  1331.90  9.96
2265.8  13367.17  1315.56  9.84
2268.3  13288.30  1298.17  9.77
2270.7  13342.05  1266.65  9.49
2273.1  13272.94  1247.66  9.40
2275.6  13194.24  1242.88  9.42
2278.0  13232.60  1224.74  9.26
2280.4  13249.81  1209.66  9.13
2282.8  13117.21  1187.31  9.05
2285.3  13103.68  1160.02  8.85
2287.7  13191.09  1146.77  8.69
2290.1  13097.39  1131.97  8.64
2292.5  13047.88  1088.65  8.34
2294.9  13056.31  1102.52  8.44
2297.3  12972.40  1100.81  8.49
2299.7  12875.52  1044.99  8.12
2302.1  12826.01  1037.08  8.09
2304.5  12696.88  1019.20  8.03
2306.9  12602.80  989.15  7.85
2309.3  12519.08  983.51  7.86
2311.7  12473.65  981.25  7.87
2314.1  12315.17  941.26  7.64
2316.5  12229.76  945.60  7.73
2318.9  12290.12  961.77  7.83
2321.3  12265.32  936.27  7.63
2323.7  12235.57  951.75  7.78
2326.1  12214.93  941.68  7.71
2328.4  12270.09  922.16  7.52
2330.8  12319.08  914.80  7.43
2333.2  12235.57  893.68  7.30
2335.6  12168.54  867.70  7.13
2337.9  12202.83  877.79  7.19
2340.3  12141.58  867.66  7.15
2342.7  12039.09  827.99  6.88
2345.0  12013.82  826.68  6.88
2347.4  11993.50  827.33  6.90
2349.7  11798.34  788.84  6.69
2352.1  11775.76  766.18  6.51
2354.4  11820.42  778.00  6.58
2356.8  11728.38  775.56  6.61
2359.2  11704.33  800.22  6.84
2361.5  11645.74  773.77  6.64
2363.8  11633.53  737.80  6.34
2366.2  11660.03  759.09  6.51
2368.5  11627.85  755.02  6.49
2370.9  11603.83  736.61  6.35
2373.2  11533.95  720.97  6.25
2375.5  11398.48  692.33  6.07
2377.9  11373.04  688.31  6.05
2380.2  11408.35  687.25  6.02
2382.5  11308.30  672.40  5.95
2384.8  11261.28  657.33  5.84
2387.2  11252.00  659.49  5.86
2389.5  11242.29  664.18  5.91
2391.8  11232.13  635.36  5.66
2394.1  11132.13  612.59  5.50
2396.4  11089.46  593.50  5.35
2398.7  11160.99  578.11  5.18
2401.0  11096.58  580.22  5.23
2403.3  10926.12  579.34  5.30
2405.6  10921.36  569.81  5.22
2407.9  10891.74  549.43  5.04
2410.2  10793.71  534.76  4.95
2412.5  10752.81  525.11  4.88
2414.8  10737.29  525.49  4.89
2417.1  10694.97  526.49  4.92
2419.4  10638.82  515.79  4.85
2421.7  10597.44  499.38  4.71
2424.0  10571.95  508.96  4.81
2426.2  10576.95  524.30  4.96
2428.5  10508.39  488.56  4.65
2430.8  10485.80  459.62  4.38
2433.1  10443.79  462.82  4.43
2435.4  10361.94  453.20  4.37
2437.6  10328.37  428.95  4.15
2439.9  10224.92  409.90  4.01
2442.2  10193.49  411.46  4.04
2444.4  10223.13  390.55  3.82
2446.7  10173.28  379.60  3.73
2448.9  10197.11  408.60  4.01
2451.2  10173.72  387.40  3.81
2453.4  10028.37  373.65  3.73
2455.7  9998.26  364.90  3.65
2457.9  9908.42  350.02  3.53
2460.2  9870.17  343.19  3.48
2462.4  9896.64  349.44  3.53
2464.7  9834.69  351.16  3.57
2466.9  9751.98  316.72  3.25
2469.2  9722.50  324.08  3.33
2471.4  9624.29  321.69  3.34
2473.6  9553.77  316.90  3.32
2475.9  9536.85  316.09  3.31
2478.1  9427.70  296.04  3.14
2480.3  9377.37  283.11  3.02
2482.5  9321.43  302.61  3.25
2484.8  9240.44  298.55  3.23
2487.0  9258.33  266.64  2.88
2489.2  9302.30  291.48  3.13
2491.4  9183.58  284.35  3.10
2493.6  9147.34  266.51  2.91
2495.8  9177.35  298.26  3.25
2498.0  9103.79  294.54  3.24
2500.2  9132.70  261.18  2.86
2502.4  9403.92  301.92  3.21
2504.6  9512.07  325.52  3.42
2506.8  9585.80  292.25  3.05
