/*** Spectra Vista SIG Data ***/
name= RS4.sig
comm= Averaged Ref/Tar of files: RD5S10,RD5S11,RD5S12
data=
346.4  366.28  140.99  38.49
347.9  400.03  151.02  37.75
349.5  432.12  146.85  33.98
351.1  468.00  154.75  33.07
352.6  496.51  160.66  32.36
354.2  520.33  169.73  32.62
355.7  575.84  175.11  30.41
357.3  598.14  186.78  31.23
358.8  616.87  183.14  29.69
360.4  668.33  194.17  29.05
361.9  686.05  191.77  27.95
363.5  715.01  200.37  28.02
365.1  743.78  198.80  26.73
366.6  778.54  208.53  26.79
368.2  824.27  203.24  24.66
369.7  873.39  211.14  24.17
371.3  928.49  223.89  24.11
372.8  977.74  227.09  23.23
374.4  1016.27  230.96  22.73
375.9  1052.58  232.14  22.05
377.4  1084.71  235.92  21.75
379.0  1129.79  240.60  21.30
380.5  1157.14  235.53  20.35
382.1  1186.43  236.40  19.93
383.6  1234.64  239.27  19.38
385.2  1293.88  240.90  18.62
386.7  1345.63  245.48  18.24
388.3  1410.38  255.81  18.14
389.8  1464.46  262.79  17.94
391.3  1527.57  266.99  17.48
392.9  1567.60  269.71  17.21
394.4  1609.87  282.90  17.57
395.9  1662.63  290.97  17.50
397.5  1749.05  310.08  17.73
399.0  1827.74  309.41  16.93
400.6  1876.29  307.91  16.41
402.1  1904.04  303.06  15.92
403.6  1943.17  300.49  15.46
405.1  1994.81  301.01  15.09
406.7  2061.92  308.22  14.95
408.2  2135.06  315.71  14.79
409.7  2198.56  322.26  14.66
411.3  2272.05  334.46  14.72
412.8  2335.64  342.23  14.65
414.3  2399.77  351.79  14.66
415.8  2475.00  359.67  14.53
417.4  2547.71  372.75  14.63
418.9  2612.23  376.46  14.41
420.4  2658.25  379.86  14.29
421.9  2705.56  383.01  14.16
423.5  2743.63  389.48  14.20
425.0  2788.02  388.97  13.95
426.5  2844.45  391.87  13.78
428.0  2917.63  401.20  13.75
429.5  3009.90  404.22  13.43
431.1  3112.45  415.64  13.35
432.6  3227.88  429.87  13.32
434.1  3329.29  433.25  13.01
435.6  3423.98  449.44  13.13
437.1  3517.80  460.20  13.08
438.6  3607.74  471.08  13.06
440.1  3694.39  478.45  12.95
441.6  3790.73  487.81  12.87
443.1  3873.83  498.69  12.87
444.7  3959.99  508.82  12.85
446.2  4024.76  514.18  12.78
447.7  4101.41  523.55  12.77
449.2  4174.20  526.75  12.62
450.7  4238.00  536.36  12.66
452.2  4313.18  540.51  12.53
453.7  4393.64  542.11  12.34
455.2  4491.99  551.42  12.28
456.7  4618.24  563.20  12.20
458.2  4761.06  577.14  12.12
459.7  4899.13  595.23  12.15
461.2  5044.37  609.51  12.08
462.7  5165.05  626.26  12.12
464.2  5287.79  640.75  12.12
465.7  5408.14  654.87  12.11
467.2  5518.98  669.39  12.13
468.7  5631.00  683.73  12.14
470.2  5705.20  697.98  12.23
471.7  5821.13  712.50  12.24
473.2  6011.22  734.57  12.22
474.6  6153.75  746.79  12.14
476.1  6204.18  753.87  12.15
477.6  6220.94  743.85  11.96
479.1  6250.52  742.77  11.88
480.6  6293.37  742.34  11.80
482.1  6374.96  744.72  11.68
483.6  6474.12  753.64  11.64
485.1  6599.29  765.39  11.60
486.6  6739.10  780.48  11.58
488.0  6898.13  794.08  11.51
489.5  7058.36  810.08  11.48
491.0  7224.81  826.46  11.44
492.5  7392.87  845.86  11.44
494.0  7557.79  863.93  11.43
495.4  7702.20  881.32  11.44
496.9  7844.83  901.80  11.50
498.4  7990.29  918.69  11.50
499.9  8131.50  932.95  11.47
501.4  8263.45  951.84  11.52
502.8  8392.79  970.38  11.56
504.3  8499.60  983.76  11.57
505.8  8611.18  1002.69  11.64
507.2  8674.01  1012.67  11.67
508.7  8728.20  1023.01  11.72
510.2  8764.92  1033.11  11.79
511.6  8789.76  1040.77  11.84
513.1  8840.43  1049.94  11.88
514.6  8904.34  1065.77  11.97
516.0  8958.85  1078.06  12.03
517.5  9056.55  1090.82  12.04
519.0  9171.31  1114.94  12.16
520.5  9287.32  1137.28  12.25
521.9  9437.16  1159.50  12.29
523.4  9612.27  1192.63  12.41
524.8  9785.79  1219.61  12.46
526.3  9984.58  1256.67  12.59
527.8  10184.06  1292.27  12.69
529.2  10366.76  1326.77  12.80
530.7  10567.61  1362.40  12.89
532.1  10746.40  1396.72  13.00
533.6  10959.02  1434.88  13.09
535.0  11168.56  1471.24  13.17
536.5  11376.00  1512.30  13.29
538.0  11592.92  1551.98  13.39
539.4  11785.91  1587.69  13.47
540.9  12037.93  1625.70  13.50
542.3  12246.63  1664.36  13.59
543.8  12400.56  1692.55  13.65
545.2  12445.48  1706.28  13.71
546.6  12442.01  1717.53  13.80
548.1  12455.19  1724.20  13.84
549.5  12460.55  1732.94  13.91
551.0  12456.77  1743.55  14.00
552.4  12484.13  1755.67  14.06
553.9  12491.52  1765.42  14.13
555.3  12509.64  1778.16  14.21
556.8  12569.08  1797.60  14.30
558.2  12630.94  1820.48  14.41
559.6  12713.51  1846.84  14.53
561.1  12831.00  1880.45  14.66
562.5  12959.42  1918.73  14.81
564.0  13129.35  1967.51  14.99
565.4  13288.41  2011.12  15.13
566.8  13487.87  2067.80  15.33
568.3  13678.39  2128.32  15.56
569.7  13879.32  2186.59  15.75
571.1  14074.77  2252.05  16.00
572.6  14269.77  2321.35  16.27
574.0  14463.08  2390.52  16.53
575.4  14650.03  2458.80  16.78
576.9  14818.07  2537.30  17.12
578.3  14977.46  2611.42  17.44
579.7  15131.24  2693.46  17.80
581.1  15254.19  2773.52  18.18
582.6  15387.18  2859.81  18.59
584.0  15508.86  2949.35  19.02
585.4  15681.05  3043.89  19.41
586.8  15909.04  3157.38  19.85
588.3  16162.38  3285.36  20.33
589.7  16371.81  3403.61  20.79
591.1  16519.39  3515.09  21.28
592.5  16589.78  3617.89  21.81
594.0  16627.80  3721.61  22.38
595.4  16637.76  3825.17  22.99
596.8  16651.64  3929.07  23.60
598.2  16659.51  4039.66  24.25
599.6  16659.36  4157.39  24.96
601.0  16705.59  4285.32  25.65
602.4  16752.94  4422.95  26.40
603.9  16822.23  4572.60  27.18
605.3  16905.11  4733.16  28.00
606.7  16973.10  4897.20  28.85
608.1  17114.04  5083.65  29.70
609.5  17255.15  5288.43  30.65
610.9  17434.91  5504.24  31.57
612.3  17598.49  5730.54  32.56
613.7  17818.60  5980.31  33.56
615.1  17967.42  6215.62  34.59
616.5  18122.06  6453.38  35.61
617.9  18356.64  6731.78  36.67
619.3  18578.68  7009.57  37.73
620.7  18848.67  7312.29  38.79
622.1  19119.58  7637.75  39.95
623.5  19414.06  8005.28  41.23
624.9  19741.18  8413.06  42.62
626.3  19952.52  8762.16  43.92
627.7  19741.37  8897.26  45.07
629.1  19544.02  9029.10  46.20
630.5  19457.12  9198.28  47.27
631.9  19461.81  9404.45  48.32
633.3  19457.49  9601.77  49.35
634.7  19533.17  9834.36  50.35
636.1  19566.68  10010.21  51.16
637.5  19597.55  10155.03  51.82
638.9  19677.50  10262.52  52.15
640.2  19731.43  10369.91  52.56
641.6  19754.28  10456.99  52.94
643.0  19715.36  10536.64  53.44
644.4  19707.26  10616.24  53.87
645.8  19650.11  10681.29  54.36
647.2  19716.78  10856.47  55.06
648.5  19765.84  11030.55  55.81
649.9  19671.60  11152.65  56.69
651.3  19608.23  11305.34  57.66
652.7  19503.68  11438.62  58.65
654.1  19390.95  11424.24  58.92
655.5  19238.75  11349.72  58.99
656.8  19118.09  11281.42  59.01
658.2  19225.93  11348.48  59.03
659.6  19449.31  11489.05  59.07
660.9  19643.18  11599.08  59.05
662.3  19825.21  11694.98  58.99
663.7  20008.80  11772.88  58.84
665.0  20165.89  11838.88  58.71
666.4  20328.89  11912.57  58.60
667.8  20535.62  12012.16  58.49
669.1  20711.76  12107.22  58.46
670.5  20914.18  12251.46  58.58
671.9  21055.86  12382.53  58.81
673.2  21237.33  12570.75  59.19
674.6  21400.77  12781.00  59.72
676.0  21596.49  13054.81  60.45
677.3  21793.24  13371.97  61.36
678.7  21992.69  13760.65  62.57
680.0  22269.19  14263.31  64.05
681.4  22542.00  14866.42  65.95
682.8  22829.63  15560.09  68.16
684.1  23112.18  16344.12  70.72
685.5  23364.31  17169.55  73.49
686.8  23617.23  18019.01  76.30
688.2  23841.32  18840.82  79.03
689.5  23927.84  19538.93  81.66
690.9  23997.39  20174.23  84.07
692.2  24047.78  20734.56  86.22
693.6  24110.83  21253.17  88.15
694.9  24095.99  21648.13  89.84
696.2  24121.97  22032.39  91.34
697.6  24149.95  22373.45  92.64
698.9  24174.48  22684.99  93.84
700.3  24215.57  22965.20  94.84
701.6  24264.40  23237.90  95.77
703.0  24323.35  23481.65  96.54
704.3  24329.34  23667.26  97.28
705.6  24327.41  23821.02  97.92
707.0  24334.75  23966.41  98.49
708.3  24282.08  24043.29  99.02
709.6  24223.21  24089.29  99.45
711.0  24124.28  24113.00  99.95
712.3  24015.02  24116.28  100.42
713.6  23977.17  24163.27  100.78
714.9  23907.38  24182.69  101.15
716.3  23880.58  24242.57  101.52
717.6  23876.83  24315.98  101.84
718.9  23805.06  24306.57  102.11
720.2  23675.16  24232.51  102.35
721.6  23576.15  24175.55  102.54
722.9  23446.45  24092.71  102.76
724.2  23274.82  23971.41  102.99
725.5  23133.68  23885.41  103.25
726.8  23009.81  23795.27  103.41
728.1  22933.91  23753.39  103.57
729.5  22856.87  23717.06  103.76
730.8  22796.53  23685.95  103.90
732.1  22719.29  23642.76  104.06
733.4  22660.56  23622.50  104.25
734.7  22602.67  23586.77  104.35
736.0  22569.89  23605.15  104.59
737.3  22520.76  23593.30  104.76
738.6  22554.56  23679.78  104.99
739.9  22633.16  23821.80  105.25
741.2  22698.59  23937.73  105.46
742.5  22841.25  24147.31  105.72
743.8  23091.34  24483.31  106.03
745.1  23491.07  24956.88  106.24
746.4  23957.57  25503.36  106.45
747.7  24466.55  26062.34  106.52
749.0  24948.63  26577.51  106.53
750.3  25229.30  26844.32  106.40
751.6  25175.69  26783.75  106.39
752.9  24925.64  26532.33  106.45
754.2  24630.59  26255.70  106.60
755.4  24314.44  25974.85  106.83
756.7  24210.69  25935.12  107.12
758.0  24235.24  26017.93  107.36
759.3  24394.18  26260.37  107.65
760.6  24621.52  26554.53  107.85
761.9  24823.09  26835.44  108.11
763.1  24955.30  27016.83  108.26
764.4  25125.21  27240.04  108.42
765.7  25257.38  27415.27  108.54
767.0  25349.99  27561.78  108.73
768.2  25431.84  27693.12  108.89
769.5  25509.93  27807.06  109.00
770.8  25646.87  27988.62  109.13
772.0  25674.66  28066.00  109.31
773.3  25762.96  28187.08  109.41
774.6  25839.71  28310.08  109.56
775.8  25921.43  28423.94  109.65
777.1  25948.26  28492.39  109.80
778.4  25918.05  28496.77  109.95
779.6  25945.86  28541.76  110.01
780.9  25904.00  28536.53  110.16
782.1  25811.51  28484.69  110.36
783.4  25819.04  28545.92  110.56
784.6  25849.06  28609.23  110.68
785.9  26028.56  28888.91  110.99
787.1  26416.14  29369.15  111.18
788.4  26716.91  29701.66  111.17
789.6  26732.54  29633.72  110.85
790.9  26499.75  29325.07  110.66
792.1  26215.36  29039.90  110.77
793.4  25939.41  28786.95  110.98
794.6  25766.06  28607.28  111.03
795.8  25608.38  28451.49  111.10
797.1  25427.85  28297.29  111.28
798.3  25301.10  28206.92  111.48
799.5  25235.55  28152.26  111.56
800.8  25155.70  28097.65  111.69
802.0  25074.70  28039.07  111.82
803.2  24986.56  27952.28  111.87
804.5  24925.76  27899.00  111.93
805.7  24855.66  27840.51  112.01
806.9  24776.64  27764.80  112.06
808.1  24708.89  27710.31  112.15
809.4  24677.19  27676.33  112.15
810.6  24617.78  27624.57  112.21
811.8  24606.91  27616.68  112.23
813.0  24601.75  27651.76  112.40
814.2  24620.30  27670.56  112.39
815.4  24684.78  27743.82  112.39
816.6  24715.54  27758.59  112.31
817.9  24752.29  27786.09  112.26
819.1  24717.85  27728.03  112.18
820.3  24615.89  27618.49  112.20
821.5  24558.22  27522.95  112.07
822.7  24525.20  27461.46  111.97
823.9  24512.51  27436.93  111.93
825.1  24512.73  27413.20  111.83
826.3  24527.23  27400.97  111.72
827.5  24554.23  27386.86  111.54
828.7  24585.24  27389.19  111.41
829.9  24620.63  27397.81  111.28
831.0  24677.45  27417.45  111.10
832.2  24735.00  27439.78  110.94
833.4  24800.15  27456.57  110.71
834.6  24827.34  27496.25  110.75
835.8  24886.58  27516.51  110.57
837.0  24941.18  27568.23  110.53
838.1  25036.55  27658.87  110.47
839.3  25073.20  27707.06  110.50
840.5  25138.07  27767.73  110.46
841.7  25214.76  27858.11  110.48
842.9  25311.78  27956.24  110.45
844.0  25352.29  28026.71  110.55
845.2  25454.19  28131.13  110.52
846.4  25527.43  28217.80  110.54
847.5  25656.16  28357.86  110.53
848.7  25745.00  28472.49  110.59
849.9  25879.71  28573.35  110.41
851.0  25913.04  28608.66  110.40
852.2  25966.07  28632.47  110.27
853.3  25941.98  28619.87  110.32
854.5  25934.86  28592.31  110.25
855.6  25916.94  28568.53  110.23
856.8  25944.85  28597.47  110.22
857.9  25943.54  28583.99  110.18
859.1  25996.60  28650.61  110.21
860.2  26027.46  28656.89  110.10
861.4  26023.97  28678.37  110.20
862.5  26059.24  28683.35  110.07
863.7  26115.12  28742.37  110.06
864.8  26101.25  28740.41  110.11
865.9  26082.46  28705.66  110.06
867.1  26099.25  28732.11  110.09
868.2  26099.69  28737.00  110.10
869.3  26128.19  28748.65  110.03
870.5  26099.47  28681.53  109.89
871.6  26087.08  28692.28  109.99
872.7  26136.21  28718.51  109.88
873.9  26148.82  28721.58  109.84
875.0  26142.73  28706.05  109.81
876.1  26142.29  28692.33  109.75
877.2  26184.05  28678.44  109.53
878.3  26169.01  28663.38  109.53
879.4  26191.11  28678.59  109.50
880.5  26214.48  28678.61  109.40
881.7  26220.35  28661.27  109.31
882.8  26271.44  28639.70  109.01
883.9  26272.50  28645.20  109.03
885.0  26275.91  28581.28  108.77
886.1  26278.81  28505.54  108.47
887.2  26194.66  28393.56  108.39
888.3  26154.69  28271.22  108.09
889.4  26083.75  28175.37  108.02
890.5  26060.47  28088.40  107.78
891.6  26043.45  28020.28  107.59
892.7  26025.13  27982.11  107.52
893.8  26046.70  27978.16  107.42
894.9  26070.72  27960.93  107.25
896.0  26059.51  27895.93  107.05
897.0  26054.12  27894.46  107.06
898.1  26079.30  27883.56  106.92
899.2  26095.96  27864.33  106.78
900.3  26052.56  27761.85  106.56
901.4  26029.33  27705.54  106.44
902.4  26018.83  27691.54  106.43
903.5  26017.27  27613.59  106.14
904.6  26012.16  27580.82  106.03
905.7  26050.43  27555.56  105.78
906.7  26024.14  27514.99  105.73
907.8  26076.86  27518.32  105.53
908.9  26057.48  27442.22  105.31
909.9  26017.06  27372.75  105.21
911.0  26009.49  27296.24  104.95
912.1  25979.15  27225.90  104.80
913.1  25944.88  27112.04  104.50
914.2  25856.17  27020.01  104.50
915.2  25844.13  26973.00  104.37
916.3  25883.78  26916.58  103.99
917.3  25847.25  26840.32  103.84
918.4  25819.06  26730.40  103.53
919.4  25792.96  26632.57  103.26
920.5  25804.34  26566.01  102.95
921.5  25824.68  26506.11  102.64
922.6  25820.42  26387.42  102.20
923.6  25802.74  26335.22  102.06
924.7  25837.63  26277.30  101.70
925.7  25830.51  26169.70  101.31
926.7  25889.20  26080.81  100.74
927.8  25949.67  26020.23  100.27
928.8  26061.51  25971.24  99.65
929.9  26114.55  25927.64  99.28
930.9  26214.58  25942.08  98.96
931.9  26363.30  25934.29  98.37
932.9  26568.63  25997.86  97.85
934.0  26604.58  25919.11  97.42
935.0  26610.78  25808.39  96.98
936.0  26639.41  25684.70  96.42
937.0  26632.91  25539.36  95.89
938.1  26589.57  25404.63  95.54
939.1  26594.73  25275.20  95.04
940.1  26647.30  25226.92  94.67
941.1  26757.94  25208.64  94.21
942.1  26950.86  25234.95  93.63
943.1  27064.46  25202.66  93.12
944.1  27200.04  25190.41  92.61
945.2  27250.86  25083.46  92.05
946.2  27341.46  25004.19  91.45
947.2  27385.31  24886.42  90.88
948.2  27528.14  24814.53  90.14
949.2  27562.84  24694.91  89.59
950.2  27601.23  24578.13  89.05
951.2  27696.06  24462.59  88.33
952.2  27776.58  24359.71  87.70
953.2  27874.44  24273.19  87.08
954.2  27994.28  24178.29  86.37
955.2  28013.52  24069.97  85.92
956.2  27975.49  23910.40  85.47
957.2  28074.45  23836.81  84.91
958.2  28163.05  23765.46  84.39
959.2  28188.45  23738.46  84.21
960.1  28244.69  23689.57  83.87
961.1  28322.00  23662.59  83.55
962.1  28304.06  23612.25  83.42
963.1  28357.97  23581.47  83.16
964.1  28464.51  23633.26  83.03
965.1  28543.56  23650.74  82.86
966.1  28584.14  23646.34  82.73
967.0  28655.80  23693.38  82.68
968.0  28697.14  23733.78  82.70
969.0  28718.80  23742.59  82.67
970.0  28760.47  23755.90  82.60
971.0  28834.42  23787.54  82.50
971.9  28848.78  23841.08  82.64
972.9  28890.31  23899.05  82.72
973.9  28948.56  23929.10  82.66
974.9  29046.70  23898.10  82.27
975.8  29063.68  24064.58  82.80
976.8  29052.58  24121.99  83.03
977.8  29165.54  24147.99  82.80
978.8  29197.88  24279.92  83.16
979.7  29189.32  24432.00  83.70
980.7  29306.81  24484.64  83.55
981.7  29477.75  24764.78  84.01
982.6  29574.16  24894.78  84.18
983.6  29987.80  25362.34  84.58
984.6  30188.75  25664.46  85.01
985.5  30563.82  26101.30  85.40
986.5  30946.12  26590.74  85.93
987.5  31666.80  27300.97  86.21
988.4  32276.75  27855.81  86.30
989.4  33081.94  28529.53  86.24
990.4  33865.04  29369.16  86.72
991.3  34680.98  30130.70  86.88
992.3  35996.38  30805.60  85.58
993.2  37249.57  31235.78  83.86
994.2  37192.84  32520.54  87.44
995.2  38468.72  32640.13  84.85
996.1  38815.33  33252.82  85.67
997.1  39248.66  33222.93  84.65
998.0  39056.40  33483.44  85.73
999.0  38843.24  33387.12  85.95
1000.0  39939.10  33501.34  83.88
1000.9  41119.71  34050.00  82.81
1001.9  38921.76  33245.67  85.42
1002.8  38260.04  33284.14  86.99
1003.8  38840.71  33807.43  87.04
1004.8  39018.78  33405.55  85.61
961.5  34611.80  22945.63  66.29
965.5  33947.81  22887.76  67.42
969.5  32673.62  22426.86  68.64
973.4  31329.21  21817.75  69.64
977.4  30182.73  21421.27  70.97
981.4  29653.05  21445.85  72.32
985.3  29580.67  21709.10  73.39
989.3  29694.74  22147.12  74.58
993.3  29811.28  22587.02  75.77
997.2  29873.76  22881.25  76.59
1001.2  29847.48  23104.47  77.41
1005.2  29766.32  23295.39  78.26
1009.1  29802.16  23579.98  79.12
1013.1  29912.80  23949.87  80.07
1017.1  29980.27  24330.30  81.15
1021.0  29997.45  24640.90  82.14
1025.0  29986.05  24923.30  83.12
1029.0  29874.56  25116.58  84.07
1032.9  29757.39  25299.73  85.02
1036.9  29719.10  25548.55  85.97
1040.9  29786.91  25854.85  86.80
1044.8  29914.06  26211.84  87.62
1048.8  30017.23  26539.54  88.41
1052.7  30081.05  26806.24  89.11
1056.7  30106.96  26988.30  89.64
1060.7  30124.55  27129.28  90.06
1064.6  30126.20  27235.91  90.41
1068.6  30068.46  27243.81  90.61
1072.5  30024.99  27209.82  90.62
1076.5  29992.38  27162.36  90.56
1080.4  29983.51  27105.27  90.40
1084.4  30049.89  27062.95  90.06
1088.3  30134.74  27000.53  89.60
1092.3  30115.74  26837.84  89.12
1096.2  30104.84  26641.50  88.50
1100.2  30142.18  26457.50  87.78
1104.1  30082.71  26187.95  87.05
1108.1  30052.27  25936.17  86.30
1112.0  29977.43  25649.36  85.56
1116.0  29868.35  25284.81  84.65
1119.9  29779.89  24889.43  83.58
1123.9  29822.35  24531.25  82.26
1127.8  29798.40  23966.72  80.43
1131.8  29786.58  23229.57  77.99
1135.7  29821.64  22379.52  75.04
1139.6  29831.38  21439.37  71.87
1143.6  29819.95  20521.79  68.82
1147.5  29803.64  19726.71  66.19
1151.4  29713.98  19033.72  64.06
1155.4  29731.43  18602.18  62.57
1159.3  29760.66  18326.65  61.58
1163.2  29674.15  18075.83  60.91
1167.2  29672.28  17948.98  60.49
1171.1  29681.80  17866.58  60.19
1175.0  29651.52  17773.05  59.94
1179.0  29638.87  17691.69  59.69
1182.9  29697.98  17658.38  59.46
1186.8  29706.14  17593.44  59.22
1190.7  29571.10  17446.77  59.00
1194.7  29411.94  17302.71  58.83
1198.6  29289.65  17210.66  58.76
1202.5  29196.66  17151.41  58.74
1206.4  29112.98  17122.39  58.81
1210.3  29056.59  17133.93  58.97
1214.2  29008.58  17159.96  59.15
1218.2  28915.95  17202.78  59.49
1222.1  28833.10  17251.61  59.83
1226.0  28785.60  17325.77  60.19
1229.9  28734.48  17395.66  60.54
1233.8  28673.70  17445.93  60.84
1237.7  28644.25  17512.02  61.14
1241.6  28596.57  17558.17  61.40
1245.5  28494.07  17570.14  61.66
1249.4  28422.55  17579.65  61.85
1253.3  28356.92  17587.37  62.02
1257.2  28323.43  17604.05  62.15
1261.1  28264.79  17590.29  62.23
1265.0  28184.91  17549.06  62.26
1268.9  28067.43  17463.60  62.22
1272.8  28106.70  17456.25  62.11
1276.7  28238.01  17493.41  61.95
1280.6  28297.17  17461.10  61.71
1284.5  28250.81  17337.34  61.37
1288.4  28234.52  17218.72  60.98
1292.3  28165.50  17027.08  60.45
1296.2  28076.33  16800.56  59.84
1300.1  27971.71  16540.22  59.13
1303.9  27830.79  16220.97  58.28
1307.8  27679.51  15884.43  57.39
1311.7  27513.83  15514.91  56.39
1315.6  27356.90  15122.95  55.28
1319.5  27190.78  14707.56  54.09
1323.3  27036.43  14285.25  52.84
1327.2  26898.46  13866.40  51.55
1331.1  26745.75  13438.08  50.24
1335.0  26551.82  12994.70  48.94
1338.8  26417.20  12600.45  47.70
1342.7  26306.22  12240.24  46.53
1346.5  26068.84  11832.61  45.39
1350.4  25867.11  11455.63  44.29
1354.3  25587.95  11063.84  43.24
1358.1  25293.52  10677.34  42.21
1362.0  25095.25  10365.27  41.30
1365.8  25024.00  10102.07  40.37
1369.7  25106.98  9852.93  39.24
1373.5  25078.13  9490.18  37.84
1377.4  24917.97  8981.89  36.05
1381.2  24782.40  8396.08  33.88
1385.1  24754.66  7810.03  31.55
1389.0  24692.16  7215.37  29.22
1392.8  24567.88  6618.12  26.94
1396.6  24460.52  6072.71  24.83
1400.5  24320.99  5593.37  23.00
1404.3  24225.89  5204.93  21.48
1408.2  24204.64  4908.90  20.28
1412.0  24174.50  4673.35  19.33
1415.8  24201.79  4505.06  18.61
1419.6  24176.54  4368.69  18.07
1423.5  24162.30  4258.63  17.63
1427.3  24156.22  4182.68  17.32
1431.1  24149.78  4133.08  17.11
1434.9  24082.82  4085.31  16.96
1438.8  24045.91  4050.48  16.84
1442.6  24021.66  4034.38  16.79
1446.4  23948.95  4011.47  16.75
1450.2  23899.20  3990.10  16.70
1454.0  23823.72  3977.08  16.69
1457.8  23805.13  3986.84  16.75
1461.6  23794.65  4006.00  16.84
1465.4  23719.51  4018.91  16.94
1469.2  23598.58  4037.37  17.11
1473.0  23505.47  4075.83  17.34
1476.8  23479.35  4136.09  17.62
1480.7  23444.07  4205.51  17.94
1484.4  23358.60  4282.60  18.33
1488.2  23294.76  4375.32  18.78
1492.0  23212.99  4468.41  19.25
1495.8  23134.48  4556.07  19.69
1499.6  23068.04  4633.21  20.08
1503.4  22989.82  4704.89  20.47
1507.2  22924.40  4772.25  20.82
1510.9  22832.54  4821.89  21.12
1514.7  22729.47  4868.92  21.42
1518.5  22650.58  4931.89  21.77
1522.3  22564.73  4989.11  22.11
1526.0  22502.83  5054.07  22.46
1529.8  22457.39  5130.60  22.85
1533.6  22379.96  5203.83  23.25
1537.3  22300.49  5275.80  23.66
1541.1  22218.14  5339.47  24.03
1544.8  22130.40  5402.40  24.41
1548.6  22049.49  5455.48  24.74
1552.4  21992.28  5518.01  25.09
1556.1  21940.64  5578.35  25.42
1559.9  21881.16  5623.51  25.70
1563.6  21806.79  5677.86  26.04
1567.3  21732.27  5745.56  26.44
1571.1  21585.13  5793.29  26.84
1574.8  21494.94  5856.90  27.25
1578.6  21441.85  5921.44  27.62
1582.3  21360.05  5962.15  27.91
1586.0  21278.88  5995.59  28.18
1589.8  21182.42  6028.64  28.46
1593.5  21087.16  6053.84  28.71
1597.2  21011.15  6083.33  28.95
1600.9  20910.91  6111.63  29.23
1604.7  20817.19  6138.87  29.49
1608.4  20751.75  6167.38  29.72
1612.1  20653.79  6182.92  29.94
1615.8  20554.46  6210.69  30.22
1619.5  20509.10  6250.74  30.48
1623.2  20415.20  6271.57  30.72
1626.9  20293.94  6282.67  30.96
1630.6  20187.64  6295.23  31.18
1634.3  20108.09  6309.37  31.38
1638.0  20016.12  6312.80  31.54
1641.7  19907.78  6306.85  31.68
1645.4  19793.59  6300.21  31.83
1649.1  19676.58  6287.43  31.95
1652.8  19573.89  6279.15  32.08
1656.4  19468.81  6256.65  32.14
1660.1  19373.12  6230.17  32.16
1663.8  19253.37  6204.36  32.22
1667.5  19154.03  6180.83  32.27
1671.1  19073.44  6156.14  32.28
1674.8  18955.63  6112.46  32.25
1678.5  18920.35  6090.22  32.19
1682.1  18926.99  6071.77  32.08
1685.8  18934.59  6044.86  31.92
1689.5  18875.64  5996.51  31.77
1693.1  18777.51  5940.01  31.63
1696.8  18693.63  5879.71  31.45
1700.4  18605.80  5809.70  31.23
1704.0  18533.22  5740.80  30.98
1707.7  18380.44  5647.62  30.73
1711.3  18186.09  5537.11  30.45
1715.0  18064.01  5445.11  30.14
1718.6  17962.81  5360.65  29.84
1722.2  17869.77  5279.14  29.54
1725.9  17778.98  5200.02  29.25
1729.5  17683.82  5135.75  29.04
1733.1  17615.86  5096.28  28.93
1736.7  17543.89  5059.49  28.84
1740.3  17426.02  5003.95  28.72
1744.0  17375.79  4954.13  28.51
1747.5  17289.32  4891.19  28.29
1751.2  17148.24  4806.67  28.03
1754.8  17043.21  4730.25  27.75
1758.4  16959.78  4663.90  27.50
1762.0  16844.84  4590.86  27.25
1765.5  16763.61  4538.30  27.07
1769.1  16735.20  4514.40  26.98
1772.7  16687.95  4483.69  26.87
1776.3  16608.65  4440.83  26.74
1779.9  16528.93  4398.89  26.61
1783.5  16504.40  4373.07  26.50
1787.0  16420.93  4338.26  26.42
1790.6  16313.97  4301.34  26.37
1794.2  16250.54  4276.55  26.32
1797.8  16183.76  4256.14  26.30
1801.3  16118.56  4247.06  26.35
1804.9  16020.38  4221.88  26.35
1808.4  15971.30  4203.68  26.32
1812.0  15882.75  4178.39  26.31
1815.5  15784.84  4148.69  26.28
1819.1  15650.89  4116.16  26.30
1822.6  15532.45  4090.42  26.33
1826.2  15446.30  4060.49  26.29
1829.7  15337.22  4015.68  26.18
1833.2  15178.78  3966.80  26.13
1836.8  15030.02  3917.55  26.06
1840.3  14950.04  3878.49  25.94
1843.8  14886.20  3842.74  25.81
1847.3  14837.06  3803.72  25.64
1850.8  14793.41  3756.48  25.39
1854.3  14722.56  3688.21  25.05
1857.8  14658.80  3600.13  24.56
1861.3  14629.20  3495.88  23.90
1864.8  14572.84  3338.08  22.91
1868.3  14425.58  3133.87  21.72
1871.8  14284.80  2933.76  20.54
1875.3  14255.61  2735.61  19.19
1878.8  14246.03  2572.84  18.06
1882.3  14193.40  2425.62  17.09
1885.8  14118.50  2259.39  16.00
1889.3  13979.52  2107.49  15.08
1892.7  13865.36  2015.76  14.54
1896.2  13804.86  1961.56  14.21
1899.7  13707.11  1933.19  14.10
1903.1  13634.54  1949.03  14.29
1906.6  13688.09  2021.92  14.77
1910.0  13884.77  2182.09  15.72
1913.5  14226.75  2422.17  17.03
1917.0  14474.60  2867.84  19.81
1920.4  14745.78  3189.53  21.63
1923.8  15062.87  3250.98  21.58
1871.2  12888.95  1919.22  14.89
1873.9  13047.08  1868.47  14.32
1876.7  13250.10  1790.65  13.51
1879.5  13307.88  1689.89  12.70
1882.3  13009.24  1566.76  12.04
1885.1  13033.44  1445.29  11.09
1887.8  13145.19  1324.96  10.08
1890.6  12997.04  1263.06  9.72
1893.4  12958.00  1168.45  9.02
1896.2  12845.61  1123.19  8.74
1898.9  12795.28  1134.79  8.87
1901.7  12697.20  1062.02  8.36
1904.5  12812.38  1035.08  8.08
1907.2  12777.50  1065.58  8.34
1910.0  12693.31  1057.77  8.33
1912.7  12674.55  1034.19  8.16
1915.5  12622.22  1049.97  8.32
1918.2  12592.16  1037.72  8.24
1921.0  12470.84  1007.43  8.08
1923.7  12502.92  1017.18  8.14
1926.5  12525.14  1023.68  8.17
1929.2  12499.59  1015.44  8.12
1932.0  12466.20  1029.11  8.26
1934.7  12450.39  1022.42  8.21
1937.4  12388.06  1000.81  8.08
1940.2  12333.29  1017.27  8.25
1942.9  12377.93  1020.08  8.24
1945.6  12406.16  1023.78  8.25
1948.3  12364.25  1037.88  8.39
1951.1  12353.04  1034.44  8.37
1953.8  12345.00  1039.00  8.42
1956.5  12249.55  1048.25  8.56
1959.2  12291.89  1053.48  8.57
1961.9  12307.40  1065.85  8.66
1964.6  12224.28  1073.98  8.79
1967.3  12284.97  1071.96  8.73
1970.0  12156.72  1069.55  8.80
1972.8  12093.19  1084.50  8.97
1975.5  12180.79  1086.77  8.92
1978.2  12109.24  1082.35  8.94
1980.9  12027.29  1102.84  9.17
1983.5  11996.88  1107.11  9.23
1986.2  11983.38  1100.95  9.19
1988.9  11983.38  1132.96  9.45
1991.6  11899.51  1136.46  9.55
1994.3  11798.84  1127.41  9.56
1997.0  11807.25  1154.30  9.78
1999.7  11770.96  1160.15  9.86
2002.3  11768.44  1158.34  9.84
2005.0  11742.55  1166.97  9.94
2007.7  11687.40  1173.42  10.04
2010.4  11651.26  1180.07  10.13
2013.0  11630.36  1190.16  10.23
2015.7  11528.64  1199.18  10.40
2018.4  11457.30  1186.67  10.36
2021.0  11452.33  1195.67  10.44
2023.7  11380.16  1204.16  10.58
2026.4  11323.00  1210.23  10.69
2029.0  11263.54  1216.51  10.80
2031.7  11193.43  1213.05  10.84
2034.3  11193.43  1226.19  10.95
2037.0  11130.51  1228.28  11.04
2039.6  11076.09  1230.37  11.11
2042.3  11047.98  1227.24  11.11
2044.9  11026.46  1244.49  11.29
2047.5  11001.21  1251.03  11.37
2050.2  10900.40  1235.73  11.34
2052.8  10894.80  1254.40  11.51
2055.4  10822.84  1252.35  11.57
2058.1  10738.00  1234.80  11.50
2060.7  10718.83  1259.62  11.75
2063.3  10653.43  1254.93  11.78
2065.9  10619.50  1242.29  11.70
2068.6  10577.63  1262.76  11.94
2071.2  10537.83  1267.59  12.03
2073.8  10490.95  1255.52  11.97
2076.4  10463.25  1264.87  12.09
2079.0  10439.15  1281.36  12.27
2081.6  10423.40  1281.94  12.30
2084.2  10414.77  1291.38  12.40
2086.8  10346.04  1289.72  12.47
2089.4  10282.92  1291.63  12.56
2092.1  10234.00  1292.94  12.63
2094.7  10195.43  1291.97  12.67
2097.2  10197.17  1294.84  12.70
2099.8  10202.45  1304.72  12.79
2102.4  10082.46  1299.40  12.89
2105.0  9986.40  1292.00  12.94
2107.6  9963.47  1314.03  13.19
2110.2  9945.83  1312.85  13.20
2112.8  9950.08  1312.36  13.19
2115.3  9950.34  1326.91  13.34
2117.9  9955.62  1328.00  13.34
2120.5  9928.49  1333.13  13.43
2123.1  9866.03  1349.40  13.68
2125.6  9842.13  1344.11  13.66
2128.2  9772.14  1338.46  13.70
2130.8  9719.78  1356.23  13.95
2133.3  9694.67  1342.49  13.85
2135.9  9628.08  1327.67  13.79
2138.4  9561.93  1342.70  14.04
2141.0  9493.76  1341.84  14.13
2143.6  9481.01  1338.79  14.12
2146.1  9385.04  1341.84  14.30
2148.7  9294.55  1330.31  14.31
2151.2  9319.20  1326.85  14.24
2153.8  9286.22  1343.14  14.46
2156.3  9196.68  1348.69  14.66
2158.8  9176.01  1335.89  14.56
2161.4  9166.37  1337.56  14.59
2163.9  9107.40  1327.73  14.58
2166.4  9056.27  1315.72  14.53
2169.0  9041.49  1339.37  14.81
2171.5  8982.35  1327.54  14.78
2174.0  8919.05  1319.91  14.80
2176.5  8910.20  1338.52  15.02
2179.1  8872.37  1320.12  14.88
2181.6  8820.83  1307.92  14.83
2184.1  8802.64  1322.35  15.02
2186.6  8815.58  1329.61  15.08
2189.1  8766.51  1319.31  15.05
2191.6  8725.27  1320.82  15.14
2194.1  8759.24  1329.77  15.18
2196.6  8743.02  1326.96  15.18
2199.2  8762.69  1332.55  15.21
2201.7  8728.52  1324.02  15.17
2204.1  8693.38  1320.62  15.19
2206.6  8724.47  1324.15  15.18
2209.1  8690.36  1318.44  15.17
2211.6  8648.75  1320.92  15.27
2214.1  8641.19  1331.85  15.41
2216.6  8629.81  1321.82  15.32
2219.1  8603.23  1310.43  15.23
2221.6  8565.00  1308.22  15.27
2224.0  8580.12  1295.40  15.10
2226.5  8553.64  1288.63  15.07
2229.0  8526.93  1293.00  15.16
2231.5  8456.64  1274.11  15.07
2233.9  8447.09  1249.43  14.79
2236.4  8434.10  1250.64  14.83
2238.9  8377.75  1243.88  14.85
2241.3  8418.52  1230.78  14.62
2243.8  8391.31  1219.12  14.53
2246.2  8272.81  1201.77  14.53
2248.7  8260.98  1196.85  14.49
2251.2  8270.85  1186.31  14.34
2253.6  8217.60  1173.76  14.28
2256.1  8198.40  1155.84  14.10
2258.5  8205.80  1160.18  14.14
2260.9  8176.22  1153.06  14.10
2263.4  8125.75  1123.36  13.82
2265.8  8124.16  1114.25  13.72
2268.3  8073.80  1086.51  13.46
2270.7  8110.40  1078.57  13.30
2273.1  8107.19  1092.98  13.48
2275.6  8037.12  1071.36  13.33
2278.0  8047.94  1059.48  13.16
2280.4  8050.71  1063.42  13.21
2282.8  7936.92  1045.35  13.17
2285.3  7936.09  1031.71  13.00
2287.7  8013.06  1033.53  12.90
2290.1  7946.20  1026.55  12.92
2292.5  7908.89  994.73  12.58
2294.9  7966.56  998.46  12.53
2297.3  7878.36  980.84  12.45
2299.7  7782.17  926.54  11.91
2302.1  7817.38  948.04  12.13
2304.5  7722.40  932.96  12.08
2306.9  7647.92  898.99  11.75
2309.3  7632.91  910.36  11.93
2311.7  7536.00  889.67  11.81
2314.1  7439.51  863.81  11.61
2316.5  7426.90  887.81  11.95
2318.9  7433.98  907.90  12.21
2321.3  7420.20  908.54  12.24
2323.7  7439.58  903.83  12.15
2326.1  7403.11  898.69  12.14
2328.4  7412.50  892.32  12.04
2330.8  7505.15  892.98  11.90
2333.2  7417.12  888.19  11.97
2335.6  7356.75  878.77  11.95
2337.9  7411.84  879.18  11.86
2340.3  7376.47  855.06  11.59
2342.7  7282.70  850.57  11.68
2345.0  7270.29  845.09  11.62
2347.4  7284.50  827.33  11.36
2349.7  7133.68  823.01  11.54
2352.1  7080.04  819.07  11.57
2354.4  7143.83  812.39  11.37
2356.8  7126.82  811.54  11.39
2359.2  7067.67  819.00  11.59
2361.5  7038.06  801.40  11.39
2363.8  7031.06  781.72  11.12
2366.2  7039.27  798.81  11.35
2368.5  7035.45  796.55  11.32
2370.9  7023.13  785.82  11.19
2373.2  6987.82  792.91  11.35
2375.5  6900.63  770.76  11.17
2377.9  6892.20  752.13  10.91
2380.2  6890.83  775.83  11.26
2382.5  6864.93  761.24  11.09
2384.8  6830.08  730.03  10.69
2387.2  6784.02  751.70  11.08
2389.5  6780.31  753.90  11.12
2391.8  6787.76  730.43  10.76
2394.1  6727.26  714.95  10.63
2396.4  6676.90  717.69  10.75
2398.7  6732.64  721.01  10.71
2401.0  6690.59  715.38  10.69
2403.3  6603.48  705.50  10.68
2405.6  6572.81  703.10  10.70
2407.9  6583.14  711.42  10.81
2410.2  6542.40  691.84  10.57
2412.5  6479.13  674.17  10.41
2414.8  6475.24  689.81  10.65
2417.1  6452.08  681.34  10.56
2419.4  6434.35  666.88  10.36
2421.7  6386.85  679.86  10.64
2424.0  6345.28  674.50  10.63
2426.2  6355.80  640.22  10.07
2428.5  6327.75  663.42  10.48
2430.8  6349.25  663.08  10.44
2433.1  6300.57  608.48  9.66
2435.4  6204.86  639.70  10.31
2437.6  6227.24  649.02  10.42
2439.9  6165.27  619.53  10.05
2442.2  6149.09  631.41  10.27
2444.4  6162.60  629.85  10.22
2446.7  6079.44  589.84  9.70
2448.9  6081.55  598.09  9.83
2451.2  6103.04  599.97  9.83
2453.4  6038.72  560.48  9.28
2455.7  6026.93  602.09  9.99
2457.9  5958.48  606.43  10.18
2460.2  5949.23  540.47  9.08
2462.4  5977.92  580.32  9.71
2464.7  5891.98  574.06  9.74
2466.9  5829.36  537.14  9.21
2469.2  5872.39  557.42  9.49
2471.4  5796.90  551.46  9.51
2473.6  5737.62  555.69  9.68
2475.9  5730.24  575.73  10.05
2478.1  5663.45  546.53  9.65
2480.3  5645.91  531.41  9.41
2482.5  5682.93  562.34  9.90
2484.8  5614.17  529.14  9.43
2487.0  5547.59  518.47  9.35
2489.2  5555.75  542.76  9.77
2491.4  5471.72  532.83  9.74
2493.6  5479.00  514.72  9.39
2495.8  5550.75  501.49  9.03
2498.0  5512.53  529.64  9.61
2500.2  5509.95  536.39  9.73
2502.4  5736.48  550.56  9.60
2504.6  5803.02  557.14  9.60
2506.8  5806.03  503.32  8.67
