/*** Spectra Vista SIG Data ***/
name= GB1.sig
comm= Averaged Ref/Tar of files: GD6B1,GD6B2,GD6B3
data=
346.4  350.35  66.89  19.09
347.9  381.21  66.93  17.56
349.5  410.28  67.60  16.48
351.1  433.68  70.10  16.16
352.6  475.96  70.84  14.88
354.2  499.06  78.11  15.65
355.7  540.48  81.72  15.12
357.3  582.54  85.99  14.76
358.8  588.91  87.14  14.80
360.4  636.67  88.41  13.89
361.9  668.64  92.86  13.89
363.5  692.50  96.95  14.00
365.1  712.57  94.55  13.27
366.6  747.47  99.20  13.27
368.2  792.37  102.07  12.88
369.7  840.74  100.35  11.94
371.3  898.85  108.87  12.11
372.8  941.22  113.32  12.04
374.4  986.23  114.59  11.62
375.9  1017.83  116.07  11.40
377.4  1052.18  120.78  11.48
379.0  1086.82  122.21  11.24
380.5  1123.29  125.36  11.16
382.1  1153.93  125.49  10.87
383.6  1194.95  124.55  10.42
385.2  1251.25  128.70  10.29
386.7  1299.60  132.85  10.22
388.3  1372.34  138.23  10.07
389.8  1424.66  142.38  9.99
391.3  1483.01  147.23  9.93
392.9  1530.61  149.27  9.75
394.4  1562.39  155.49  9.95
395.9  1621.81  162.44  10.02
397.5  1711.90  174.64  10.20
399.0  1784.48  176.96  9.92
400.6  1838.09  176.97  9.63
402.1  1856.31  174.24  9.39
403.6  1888.03  173.42  9.19
405.1  1944.54  174.42  8.97
406.7  2010.40  179.35  8.92
408.2  2079.37  183.99  8.85
409.7  2148.16  189.95  8.84
411.3  2213.53  196.91  8.90
412.8  2271.65  202.08  8.90
414.3  2341.03  211.63  9.04
415.8  2417.50  215.00  8.89
417.4  2490.79  222.98  8.95
418.9  2548.98  226.86  8.90
420.4  2593.45  232.14  8.95
421.9  2640.22  236.03  8.94
423.5  2679.41  238.02  8.88
425.0  2722.85  240.78  8.84
426.5  2778.88  246.25  8.86
428.0  2849.90  249.99  8.77
429.5  2939.79  257.94  8.77
431.1  3042.79  266.77  8.77
432.6  3149.06  275.18  8.74
434.1  3259.99  283.49  8.70
435.6  3346.58  292.19  8.73
437.1  3441.75  300.30  8.73
438.6  3531.11  308.38  8.73
440.1  3611.12  316.67  8.77
441.6  3703.62  323.07  8.72
443.1  3787.76  331.83  8.76
444.7  3873.68  339.08  8.75
446.2  3941.61  345.08  8.75
447.7  4009.71  352.25  8.78
449.2  4084.56  361.87  8.86
450.7  4145.44  368.85  8.90
452.2  4210.01  373.61  8.87
453.7  4291.20  378.83  8.83
455.2  4393.26  387.36  8.82
456.7  4515.28  398.23  8.82
458.2  4654.47  410.20  8.81
459.7  4795.00  422.45  8.81
461.2  4934.06  436.43  8.85
462.7  5054.96  447.74  8.86
464.2  5177.07  459.70  8.88
465.7  5301.12  473.13  8.93
467.2  5404.44  485.10  8.98
468.7  5508.00  495.20  8.99
470.2  5586.81  501.82  8.98
471.7  5702.38  518.23  9.09
473.2  5885.72  546.86  9.29
474.6  6027.25  563.76  9.35
476.1  6074.86  560.53  9.23
477.6  6093.70  554.23  9.10
479.1  6122.60  556.14  9.08
480.6  6163.05  561.10  9.10
482.1  6243.66  568.23  9.10
483.6  6332.42  575.82  9.09
485.1  6458.38  588.13  9.11
486.6  6604.00  602.88  9.13
488.0  6753.50  615.99  9.12
489.5  6913.82  633.83  9.17
491.0  7075.65  647.47  9.15
492.5  7238.97  665.28  9.19
494.0  7404.10  682.78  9.22
495.4  7549.58  699.60  9.27
496.9  7695.36  715.87  9.30
498.4  7836.28  731.73  9.34
499.9  7979.51  748.15  9.38
501.4  8103.78  765.01  9.44
502.8  8223.51  779.43  9.48
504.3  8333.10  796.44  9.56
505.8  8444.88  813.12  9.63
507.2  8514.20  824.72  9.69
508.7  8565.01  835.65  9.76
510.2  8590.79  846.63  9.86
511.6  8618.22  855.92  9.93
513.1  8670.26  870.80  10.04
514.6  8732.77  884.84  10.13
516.0  8783.27  898.26  10.23
517.5  8880.96  913.32  10.28
519.0  8994.65  932.44  10.37
520.5  9112.66  950.65  10.43
521.9  9263.01  973.41  10.51
523.4  9434.43  997.30  10.57
524.8  9608.27  1023.70  10.65
526.3  9802.81  1051.35  10.72
527.8  10000.35  1080.44  10.80
529.2  10181.33  1108.54  10.89
530.7  10383.39  1138.83  10.97
532.1  10567.68  1168.96  11.06
533.6  10773.42  1201.19  11.15
535.0  10980.59  1233.66  11.23
536.5  11186.70  1266.77  11.32
538.0  11401.56  1297.94  11.38
539.4  11601.83  1331.77  11.48
540.9  11838.18  1375.08  11.62
542.3  12056.36  1416.36  11.75
543.8  12205.88  1447.62  11.86
545.2  12241.58  1464.37  11.96
546.6  12248.30  1476.98  12.06
548.1  12260.70  1489.92  12.15
549.5  12261.13  1502.62  12.26
551.0  12260.01  1519.14  12.39
552.4  12274.54  1534.42  12.50
553.9  12279.40  1550.62  12.63
555.3  12300.80  1569.21  12.76
556.8  12360.66  1592.97  12.89
558.2  12414.09  1618.20  13.04
559.6  12499.51  1646.33  13.17
561.1  12612.44  1678.95  13.31
562.5  12742.28  1713.61  13.45
564.0  12915.37  1757.98  13.61
565.4  13070.62  1802.71  13.79
566.8  13269.64  1850.30  13.94
568.3  13461.39  1899.06  14.11
569.7  13659.35  1951.33  14.29
571.1  13859.91  2003.37  14.45
572.6  14064.03  2056.32  14.62
574.0  14250.23  2110.57  14.81
575.4  14437.41  2163.15  14.98
576.9  14612.77  2216.22  15.17
578.3  14771.90  2265.36  15.34
579.7  14927.19  2315.54  15.51
581.1  15049.34  2360.22  15.68
582.6  15179.87  2409.61  15.87
584.0  15306.40  2457.65  16.06
585.4  15471.50  2518.19  16.28
586.8  15703.41  2586.68  16.47
588.3  15959.97  2665.88  16.70
589.7  16164.72  2733.28  16.91
591.1  16308.26  2787.31  17.09
592.5  16380.50  2830.09  17.28
594.0  16416.90  2867.06  17.46
595.4  16426.30  2896.49  17.63
596.8  16438.21  2928.50  17.82
598.2  16446.40  2958.22  17.99
599.6  16446.15  2989.63  18.18
601.0  16488.64  3029.09  18.37
602.4  16524.83  3066.26  18.56
603.9  16595.00  3110.57  18.74
605.3  16677.56  3158.37  18.94
606.7  16748.10  3201.72  19.12
608.1  16880.08  3258.95  19.31
609.5  17023.96  3319.85  19.50
610.9  17200.20  3388.44  19.70
612.3  17363.60  3456.45  19.91
613.7  17583.26  3538.46  20.12
615.1  17730.09  3615.30  20.39
616.5  17885.32  3693.11  20.65
617.9  18120.27  3788.84  20.91
619.3  18343.55  3879.50  21.15
620.7  18613.68  3982.16  21.39
622.1  18877.69  4130.87  21.88
623.5  19168.37  4322.21  22.55
624.9  19495.88  4535.69  23.26
626.3  19705.80  4711.45  23.91
627.7  19502.63  4746.00  24.34
629.1  19316.59  4748.24  24.58
630.5  19234.56  4762.01  24.76
631.9  19243.16  4791.34  24.90
633.3  19227.78  4817.04  25.05
634.7  19307.14  4854.34  25.14
636.1  19335.07  4903.58  25.36
637.5  19378.14  4953.22  25.56
638.9  19457.31  5000.36  25.70
640.2  19514.53  5007.58  25.66
641.6  19531.98  4968.13  25.44
643.0  19504.65  4897.73  25.11
644.4  19507.28  4844.61  24.83
645.8  19449.04  4837.41  24.87
647.2  19526.59  4889.61  25.04
648.5  19579.91  4932.54  25.19
649.9  19492.88  4939.36  25.34
651.3  19428.45  4944.28  25.45
652.7  19344.30  4945.98  25.57
654.1  19217.52  4968.87  25.86
655.5  19076.42  4976.17  26.09
656.8  18936.77  4967.51  26.23
658.2  19052.33  5016.89  26.33
659.6  19274.42  5080.18  26.36
660.9  19463.87  5130.23  26.36
662.3  19650.11  5169.70  26.31
663.7  19826.10  5208.42  26.27
665.0  19986.79  5246.51  26.25
666.4  20146.14  5280.76  26.21
667.8  20346.56  5335.74  26.22
669.1  20529.76  5400.84  26.31
670.5  20738.52  5481.80  26.43
671.9  20872.26  5560.36  26.64
673.2  21059.41  5661.11  26.88
674.6  21230.21  5775.92  27.21
676.0  21420.32  5905.52  27.57
677.3  21614.12  6054.27  28.01
678.7  21817.38  6225.40  28.53
680.0  22089.50  6421.68  29.07
681.4  22373.47  6635.06  29.66
682.8  22657.86  6857.61  30.27
684.1  22942.53  7082.09  30.87
685.5  23200.94  7311.45  31.51
686.8  23448.72  7537.11  32.14
688.2  23672.40  7750.91  32.74
689.5  23749.65  7916.80  33.33
690.9  23825.77  8067.18  33.86
692.2  23869.28  8212.02  34.40
693.6  23926.69  8340.69  34.86
694.9  23920.11  8444.68  35.30
696.2  23942.14  8566.70  35.78
697.6  23961.85  8681.16  36.23
698.9  23992.32  8791.73  36.64
700.3  24038.01  8896.26  37.01
701.6  24084.68  9004.91  37.39
703.0  24137.54  9106.15  37.73
704.3  24141.49  9204.10  38.13
705.6  24144.66  9278.61  38.43
707.0  24151.61  9359.92  38.75
708.3  24094.31  9423.59  39.11
709.6  24038.25  9482.82  39.45
711.0  23936.43  9524.86  39.79
712.3  23827.16  9565.23  40.14
713.6  23789.01  9626.15  40.46
714.9  23716.29  9669.40  40.77
716.3  23686.39  9738.46  41.11
717.6  23672.15  9813.41  41.46
718.9  23614.96  9867.22  41.78
720.2  23494.56  9905.11  42.16
721.6  23399.74  9939.16  42.48
722.9  23270.63  9951.26  42.76
724.2  23091.17  9948.31  43.08
725.5  22957.02  9951.49  43.35
726.8  22832.78  9968.32  43.66
728.1  22750.67  9998.64  43.95
729.5  22685.44  10027.73  44.20
730.8  22628.18  10060.68  44.46
732.1  22547.20  10085.36  44.73
733.4  22493.78  10119.07  44.99
734.7  22430.29  10156.04  45.28
736.0  22412.65  10208.19  45.55
737.3  22354.35  10248.32  45.84
738.6  22392.88  10324.93  46.11
739.9  22486.41  10421.05  46.34
741.2  22557.99  10519.42  46.63
742.5  22690.46  10647.43  46.92
743.8  22954.18  10821.01  47.14
745.1  23356.68  11065.08  47.37
746.4  23838.13  11367.90  47.69
747.7  24340.83  11693.74  48.04
749.0  24845.90  12009.98  48.34
750.3  25109.11  12234.17  48.72
751.6  25056.94  12292.20  49.06
752.9  24812.33  12233.60  49.30
754.2  24511.78  12149.18  49.56
755.4  24190.11  12060.17  49.86
756.7  24095.29  12066.06  50.08
758.0  24119.44  12130.47  50.29
759.3  24282.67  12265.01  50.51
760.6  24509.10  12426.16  50.70
761.9  24709.31  12582.23  50.92
763.1  24854.26  12710.20  51.14
764.4  25021.13  12845.44  51.34
765.7  25148.50  12971.40  51.58
767.0  25255.87  13086.27  51.81
768.2  25351.20  13196.74  52.06
769.5  25424.49  13292.48  52.28
770.8  25570.26  13423.18  52.50
772.0  25587.81  13497.71  52.75
773.3  25669.17  13585.85  52.93
774.6  25760.75  13685.69  53.13
775.8  25826.13  13790.63  53.40
777.1  25851.30  13863.66  53.63
778.4  25836.83  13917.33  53.87
779.6  25861.37  13977.18  54.05
780.9  25820.00  14007.47  54.25
782.1  25728.02  14014.56  54.47
783.4  25750.40  14078.27  54.67
784.6  25767.74  14137.70  54.87
785.9  25975.04  14296.38  55.04
787.1  26352.59  14550.25  55.21
788.4  26662.70  14788.41  55.46
789.6  26677.46  14884.96  55.80
790.9  26422.83  14845.15  56.18
792.1  26144.60  14742.15  56.39
793.4  25865.12  14633.74  56.58
794.6  25676.57  14581.22  56.79
795.8  25513.36  14544.32  57.01
797.1  25350.08  14492.69  57.17
798.3  25228.50  14471.60  57.36
799.5  25169.97  14484.66  57.55
800.8  25099.23  14487.32  57.72
802.0  25011.42  14494.13  57.95
803.2  24918.76  14494.43  58.17
804.5  24860.18  14506.67  58.35
805.7  24781.04  14508.18  58.55
806.9  24699.71  14503.83  58.72
808.1  24647.73  14510.20  58.87
809.4  24609.13  14528.77  59.04
810.6  24558.63  14535.43  59.19
811.8  24538.32  14559.45  59.33
813.0  24560.28  14592.56  59.42
814.2  24583.06  14634.08  59.53
815.4  24644.79  14709.09  59.68
816.6  24675.27  14767.10  59.85
817.9  24704.84  14821.80  60.00
819.1  24672.89  14832.60  60.12
820.3  24583.02  14818.99  60.28
821.5  24511.70  14802.39  60.39
822.7  24474.49  14804.55  60.49
823.9  24466.74  14820.72  60.57
825.1  24483.13  14837.46  60.60
826.3  24493.16  14848.83  60.62
827.5  24511.03  14866.38  60.65
828.7  24560.16  14888.10  60.62
829.9  24556.61  14897.82  60.67
831.0  24631.50  14926.40  60.60
832.2  24684.15  14956.56  60.59
833.4  24732.69  14983.84  60.58
834.6  24771.09  15014.69  60.61
835.8  24806.25  15044.09  60.65
837.0  24848.21  15089.46  60.73
838.1  24942.61  15150.40  60.74
839.3  24987.97  15192.45  60.80
840.5  25056.73  15247.83  60.85
841.7  25139.84  15306.68  60.89
842.9  25202.72  15371.03  60.99
844.0  25272.39  15433.73  61.07
845.2  25356.92  15506.82  61.15
846.4  25406.55  15572.73  61.29
847.5  25535.27  15662.58  61.34
848.7  25649.51  15752.22  61.41
849.9  25759.43  15851.43  61.54
851.0  25787.85  15903.58  61.67
852.2  25836.49  15957.97  61.77
853.3  25835.02  15977.40  61.84
854.5  25803.13  15993.01  61.98
855.6  25784.28  16006.43  62.08
856.8  25811.14  16030.83  62.11
857.9  25796.36  16038.94  62.18
859.1  25866.40  16095.20  62.22
860.2  25870.46  16112.39  62.28
861.4  25883.89  16143.31  62.37
862.5  25913.95  16176.04  62.42
863.7  25967.63  16231.49  62.51
864.8  25978.23  16239.74  62.51
865.9  25934.02  16239.44  62.62
867.1  25972.57  16267.37  62.63
868.2  25960.64  16285.54  62.73
869.3  25983.57  16293.76  62.71
870.5  25945.69  16290.06  62.79
871.6  25952.82  16292.12  62.78
872.7  25988.86  16319.51  62.79
873.9  26010.48  16338.84  62.82
875.0  25998.57  16320.72  62.78
876.1  25976.68  16318.00  62.82
877.2  25992.15  16317.71  62.78
878.3  25997.76  16317.10  62.76
879.4  26016.59  16324.83  62.75
880.5  26032.32  16345.83  62.79
881.7  26038.68  16329.34  62.71
882.8  26051.76  16350.12  62.76
883.9  26088.59  16360.18  62.71
885.0  26049.66  16336.64  62.71
886.1  26068.54  16330.38  62.64
887.2  25979.14  16270.56  62.63
888.3  25929.87  16220.67  62.56
889.4  25867.81  16163.71  62.49
890.5  25830.84  16123.75  62.42
891.6  25777.28  16083.51  62.39
892.7  25812.52  16062.33  62.23
893.8  25792.32  16053.19  62.24
894.9  25833.34  16031.67  62.06
896.0  25797.95  16006.17  62.04
897.0  25823.30  15999.31  61.96
898.1  25837.83  15986.88  61.87
899.2  25853.12  15963.31  61.75
900.3  25827.20  15921.68  61.65
901.4  25755.93  15872.77  61.63
902.4  25796.28  15866.04  61.51
903.5  25760.57  15804.00  61.35
904.6  25773.48  15787.11  61.25
905.7  25786.56  15770.34  61.16
906.7  25778.44  15731.38  61.03
907.8  25791.16  15714.24  60.93
908.9  25756.23  15657.49  60.79
909.9  25738.83  15631.06  60.73
911.0  25715.27  15567.77  60.54
912.1  25708.69  15521.60  60.37
913.1  25683.06  15452.98  60.17
914.2  25568.28  15367.11  60.10
915.2  25594.38  15321.33  59.86
916.3  25582.28  15264.61  59.67
917.3  25579.53  15213.02  59.47
918.4  25529.08  15119.37  59.22
919.4  25526.52  15038.55  58.91
920.5  25540.93  14958.53  58.57
921.5  25532.64  14907.25  58.39
922.6  25509.72  14797.46  58.01
923.6  25552.64  14740.57  57.69
924.7  25558.13  14657.98  57.35
925.7  25559.01  14560.36  56.97
926.7  25571.07  14473.09  56.60
927.8  25622.74  14409.46  56.24
928.8  25737.00  14342.60  55.73
929.9  25798.01  14262.39  55.28
930.9  25912.02  14205.65  54.82
931.9  26063.45  14151.91  54.30
932.9  26272.00  14125.73  53.77
934.0  26311.65  14025.85  53.31
935.0  26328.00  13910.42  52.84
936.0  26313.67  13778.90  52.36
937.0  26305.79  13634.05  51.83
938.1  26273.03  13487.50  51.34
939.1  26282.27  13353.84  50.81
940.1  26307.38  13261.74  50.41
941.1  26474.98  13188.28  49.81
942.1  26613.43  13145.71  49.40
943.1  26709.35  13050.29  48.86
944.1  26891.46  12976.65  48.26
945.2  26931.87  12846.40  47.70
946.2  27005.05  12738.68  47.17
947.2  27050.94  12616.19  46.64
948.2  27161.01  12524.20  46.11
949.2  27258.97  12385.21  45.44
950.2  27257.00  12237.55  44.90
951.2  27381.90  12104.68  44.21
952.2  27427.92  11979.38  43.68
953.2  27549.11  11875.35  43.11
954.2  27670.16  11753.48  42.48
955.2  27683.23  11622.25  41.98
956.2  27678.04  11514.78  41.60
957.2  27683.31  11417.11  41.24
958.2  27771.67  11346.76  40.86
959.2  27855.45  11288.70  40.53
960.1  27895.78  11228.66  40.25
961.1  27947.74  11176.78  39.99
962.1  27921.09  11158.94  39.97
963.1  28038.72  11144.95  39.75
964.1  28081.62  11123.07  39.61
965.1  28159.91  11127.13  39.51
966.1  28230.04  11114.96  39.37
967.0  28291.66  11106.27  39.26
968.0  28354.15  11097.75  39.14
969.0  28355.00  11126.57  39.24
970.0  28440.42  11106.88  39.05
971.0  28447.07  11119.08  39.09
971.9  28529.94  11142.74  39.06
972.9  28619.85  11177.48  39.05
973.9  28640.46  11243.94  39.26
974.9  28629.25  11263.17  39.34
975.8  28737.28  11322.72  39.40
976.8  28722.61  11361.05  39.55
977.8  28846.97  11451.71  39.70
978.8  28789.28  11481.66  39.88
979.7  28914.30  11587.72  40.08
980.7  28909.16  11656.45  40.32
981.7  29108.19  11796.89  40.53
982.6  29310.11  11903.28  40.61
983.6  29612.62  12048.72  40.69
984.6  29886.86  12236.51  40.94
985.5  30220.02  12459.31  41.23
986.5  30590.42  12773.67  41.76
987.5  31346.01  13112.77  41.83
988.4  31956.65  13522.45  42.31
989.4  32957.10  13848.64  42.02
990.4  33646.09  14373.18  42.72
991.3  34254.92  14929.01  43.58
992.3  35605.12  15115.87  42.45
993.2  35791.00  15647.81  43.72
994.2  37066.33  16294.01  43.96
995.2  37769.29  16450.62  43.56
996.1  38356.88  17013.54  44.36
997.1  37945.80  17045.75  44.92
998.0  38542.50  16833.08  43.67
999.0  38301.25  17151.25  44.78
1000.0  38064.02  17350.70  45.58
1000.9  38955.51  17392.26  44.65
1001.9  38313.61  17379.65  45.36
1002.8  38469.11  17366.85  45.14
1003.8  38840.71  17776.54  45.77
1004.8  39018.78  17524.23  44.91
961.5  34418.44  9925.91  28.84
965.5  34203.70  9837.47  28.76
969.5  33124.73  9602.31  28.99
973.4  31599.68  9511.46  30.10
977.4  30418.99  9578.54  31.49
981.4  29806.10  9737.68  32.67
985.3  29606.90  9943.27  33.58
989.3  29665.19  10167.45  34.27
993.3  29713.32  10361.57  34.87
997.2  29668.74  10507.07  35.41
1001.2  29627.00  10663.42  35.99
1005.2  29568.23  10848.73  36.69
1009.1  29600.49  11095.72  37.48
1013.1  29702.49  11393.06  38.36
1017.1  29789.49  11696.89  39.27
1021.0  29789.99  11961.60  40.15
1025.0  29760.59  12246.27  41.15
1029.0  29636.30  12497.82  42.17
1032.9  29533.53  12735.15  43.12
1036.9  29509.70  13005.49  44.07
1040.9  29556.91  13298.82  44.99
1044.8  29679.34  13597.00  45.81
1048.8  29786.37  13864.94  46.55
1052.7  29868.84  14096.02  47.19
1056.7  29898.31  14257.61  47.69
1060.7  29913.73  14372.02  48.04
1064.6  29918.21  14471.48  48.37
1068.6  29859.11  14491.90  48.53
1072.5  29814.52  14457.97  48.49
1076.5  29798.83  14405.26  48.34
1080.4  29797.49  14327.71  48.08
1084.4  29858.05  14248.37  47.72
1088.3  29928.60  14127.11  47.20
1092.3  29919.24  13935.27  46.58
1096.2  29930.07  13713.27  45.82
1100.2  29956.02  13494.90  45.05
1104.1  29873.92  13229.08  44.28
1108.1  29858.25  12986.95  43.50
1112.0  29809.22  12727.89  42.70
1116.0  29674.06  12424.99  41.87
1119.9  29580.84  12078.48  40.83
1123.9  29636.88  11691.18  39.45
1127.8  29621.76  11153.92  37.65
1131.8  29615.13  10487.66  35.41
1135.7  29658.37  9746.90  32.86
1139.6  29649.41  8977.09  30.28
1143.6  29635.32  8299.65  28.01
1147.5  29635.02  7756.29  26.17
1151.4  29535.85  7319.33  24.78
1155.4  29547.88  7054.44  23.87
1159.3  29582.50  6896.28  23.31
1163.2  29498.44  6758.41  22.91
1167.2  29505.90  6676.44  22.63
1171.1  29517.01  6614.65  22.41
1175.0  29484.53  6552.12  22.22
1179.0  29486.15  6500.03  22.04
1182.9  29537.81  6476.52  21.93
1186.8  29538.86  6439.12  21.80
1190.7  29410.97  6376.03  21.68
1194.7  29255.48  6310.76  21.57
1198.6  29133.72  6271.65  21.53
1202.5  29044.69  6255.20  21.54
1206.4  28972.03  6245.70  21.56
1210.3  28920.11  6249.65  21.61
1214.2  28863.76  6267.85  21.72
1218.2  28763.18  6275.58  21.82
1222.1  28692.28  6290.19  21.92
1226.0  28656.56  6328.34  22.08
1229.9  28600.92  6358.94  22.23
1233.8  28545.33  6374.72  22.33
1237.7  28520.81  6406.53  22.46
1241.6  28465.46  6429.33  22.59
1245.5  28370.21  6423.65  22.64
1249.4  28299.76  6435.26  22.74
1253.3  28232.22  6451.64  22.85
1257.2  28191.00  6454.00  22.89
1261.1  28130.65  6434.64  22.87
1265.0  28057.45  6412.99  22.86
1268.9  27949.80  6372.05  22.80
1272.8  27989.85  6354.55  22.70
1276.7  28109.94  6349.43  22.59
1280.6  28175.48  6306.18  22.38
1284.5  28132.96  6228.39  22.14
1288.4  28112.11  6157.49  21.90
1292.3  28036.25  6050.92  21.58
1296.2  27954.20  5921.95  21.18
1300.1  27848.52  5780.02  20.76
1303.9  27706.57  5615.49  20.27
1307.8  27559.31  5442.01  19.75
1311.7  27397.23  5256.27  19.19
1315.6  27238.78  5070.09  18.61
1319.5  27066.08  4881.31  18.03
1323.3  26913.00  4689.54  17.42
1327.2  26776.06  4507.22  16.83
1331.1  26621.95  4334.65  16.28
1335.0  26429.02  4169.47  15.78
1338.8  26290.11  4022.01  15.30
1342.7  26169.42  3881.93  14.83
1346.5  25929.13  3734.51  14.40
1350.4  25728.90  3609.04  14.03
1354.3  25457.85  3483.62  13.68
1358.1  25158.95  3366.72  13.38
1362.0  24980.59  3260.59  13.05
1365.8  24927.82  3171.34  12.72
1369.7  24996.19  3082.87  12.33
1373.5  24961.93  2950.37  11.82
1377.4  24802.90  2793.10  11.26
1381.2  24660.90  2617.75  10.61
1385.1  24643.85  2445.57  9.92
1389.0  24592.75  2267.76  9.22
1392.8  24461.78  2090.69  8.55
1396.6  24365.22  1935.34  7.94
1400.5  24231.60  1801.83  7.44
1404.3  24125.27  1696.53  7.03
1408.2  24097.32  1612.99  6.69
1412.0  24070.61  1550.27  6.44
1415.8  24101.54  1510.18  6.27
1419.6  24084.23  1469.12  6.10
1423.5  24070.46  1436.55  5.97
1427.3  24053.34  1416.05  5.89
1431.1  24042.83  1399.65  5.82
1434.9  23983.10  1384.44  5.77
1438.8  23944.05  1377.43  5.75
1442.6  23927.04  1366.33  5.71
1446.4  23856.75  1354.57  5.68
1450.2  23800.39  1348.16  5.66
1454.0  23730.24  1339.88  5.65
1457.8  23714.21  1340.31  5.65
1461.6  23699.02  1341.15  5.66
1465.4  23623.88  1343.43  5.69
1469.2  23507.58  1351.35  5.75
1473.0  23416.67  1358.61  5.80
1476.8  23385.95  1372.12  5.87
1480.7  23341.52  1396.27  5.98
1484.4  23269.68  1418.16  6.09
1488.2  23205.84  1450.08  6.25
1492.0  23119.76  1482.65  6.41
1495.8  23050.30  1506.81  6.54
1499.6  22974.60  1524.65  6.64
1503.4  22886.86  1538.30  6.72
1507.2  22817.82  1551.62  6.80
1510.9  22736.47  1556.53  6.85
1514.7  22640.13  1561.06  6.90
1518.5  22563.41  1573.02  6.97
1522.3  22469.97  1584.07  7.05
1526.0  22400.45  1604.79  7.16
1529.8  22366.84  1631.56  7.29
1533.6  22289.14  1645.12  7.38
1537.3  22206.85  1659.09  7.47
1541.1  22117.21  1678.90  7.59
1544.8  22039.20  1700.00  7.71
1548.6  21965.35  1712.45  7.80
1552.4  21895.60  1731.38  7.91
1556.1  21841.83  1747.25  8.00
1559.9  21787.79  1753.20  8.05
1563.6  21716.01  1767.07  8.14
1567.3  21641.45  1784.53  8.25
1571.1  21503.94  1800.55  8.37
1574.8  21413.78  1823.67  8.52
1578.6  21355.88  1839.56  8.61
1582.3  21274.05  1842.72  8.66
1586.0  21183.04  1848.91  8.73
1589.8  21100.62  1853.42  8.78
1593.5  21000.69  1859.15  8.85
1597.2  20929.52  1864.78  8.91
1600.9  20843.62  1868.73  8.97
1604.7  20745.10  1872.74  9.03
1608.4  20669.95  1876.68  9.08
1612.1  20567.28  1879.15  9.14
1615.8  20477.47  1883.90  9.20
1619.5  20422.34  1886.23  9.24
1623.2  20328.29  1890.16  9.30
1626.9  20221.28  1892.39  9.36
1630.6  20112.62  1893.25  9.41
1634.3  20025.88  1897.32  9.47
1638.0  19934.15  1899.87  9.53
1641.7  19830.91  1905.59  9.61
1645.4  19716.98  1901.63  9.64
1649.1  19602.77  1892.89  9.66
1652.8  19509.95  1893.61  9.71
1656.4  19395.62  1883.29  9.71
1660.1  19295.18  1876.22  9.72
1663.8  19185.10  1872.21  9.76
1667.5  19083.74  1862.69  9.76
1671.1  18996.35  1854.78  9.76
1674.8  18876.30  1839.18  9.74
1678.5  18838.56  1829.09  9.71
1682.1  18849.73  1823.64  9.67
1685.8  18859.30  1822.01  9.66
1689.5  18795.30  1808.48  9.62
1693.1  18706.41  1790.93  9.57
1696.8  18615.25  1778.88  9.56
1700.4  18529.58  1757.91  9.49
1704.0  18456.67  1738.19  9.42
1707.7  18296.86  1714.59  9.37
1711.3  18114.51  1682.13  9.29
1715.0  17992.28  1652.98  9.19
1718.6  17886.14  1631.68  9.12
1722.2  17799.94  1614.16  9.07
1725.9  17706.59  1585.34  8.95
1729.5  17604.49  1569.01  8.91
1733.1  17541.49  1558.55  8.88
1736.7  17471.92  1545.76  8.85
1740.3  17366.15  1522.42  8.77
1744.0  17315.89  1505.48  8.69
1747.5  17227.16  1491.19  8.66
1751.2  17088.52  1470.03  8.60
1754.8  16976.43  1448.49  8.53
1758.4  16893.02  1426.43  8.44
1762.0  16789.89  1402.34  8.35
1765.5  16699.11  1392.79  8.34
1769.1  16665.60  1392.80  8.36
1772.7  16620.17  1382.39  8.32
1776.3  16550.18  1367.41  8.26
1779.9  16477.44  1347.78  8.18
1783.5  16434.96  1335.07  8.12
1787.0  16345.96  1326.97  8.12
1790.6  16243.66  1316.60  8.11
1794.2  16171.99  1306.70  8.08
1797.8  16109.35  1301.82  8.08
1801.3  16053.66  1298.00  8.09
1804.9  15954.75  1287.13  8.07
1808.4  15901.90  1284.68  8.08
1812.0  15801.30  1271.53  8.05
1815.5  15695.88  1263.05  8.05
1819.1  15574.16  1255.22  8.06
1822.6  15471.85  1242.90  8.03
1826.2  15387.58  1234.10  8.02
1829.7  15274.18  1223.82  8.01
1833.2  15120.13  1208.05  7.99
1836.8  14969.50  1188.01  7.94
1840.3  14877.77  1173.84  7.89
1843.8  14800.45  1160.48  7.84
1847.3  14738.02  1137.08  7.72
1850.8  14668.42  1107.45  7.55
1854.3  14577.15  1081.47  7.42
1857.8  14534.00  1057.33  7.27
1861.3  14522.25  1033.91  7.12
1864.8  14459.04  1010.80  6.99
1868.3  14308.06  976.89  6.83
1871.8  14215.68  947.20  6.66
1875.3  14201.46  907.58  6.39
1878.8  14176.42  853.32  6.02
1882.3  14122.90  809.41  5.73
1885.8  14014.10  765.62  5.46
1889.3  13904.45  728.45  5.24
1892.7  13776.82  708.32  5.14
1896.2  13660.15  688.15  5.04
1899.7  13554.20  655.32  4.83
1903.1  13466.38  642.49  4.77
1906.6  13511.57  668.63  4.95
1910.0  13676.29  701.88  5.13
1913.5  13920.50  742.43  5.33
1917.0  14289.98  1009.29  7.06
1920.4  14838.23  1186.44  8.00
1923.8  14900.33  1065.60  7.15
1871.2  12934.73  530.36  4.10
1873.9  13036.34  508.28  3.90
1876.7  13080.35  509.24  3.89
1879.5  13184.92  532.82  4.04
1882.3  12973.16  499.20  3.85
1885.1  12955.86  436.75  3.37
1887.8  13054.47  437.07  3.35
1890.6  12965.86  475.60  3.67
1893.4  12899.33  435.11  3.37
1896.2  12776.85  371.34  2.91
1898.9  12763.16  398.25  3.12
1901.7  12667.81  389.93  3.08
1904.5  12785.93  377.35  2.95
1907.2  12706.25  406.92  3.20
1910.0  12637.10  390.54  3.09
1912.7  12646.53  362.97  2.87
1915.5  12573.30  368.81  2.93
1918.2  12524.17  372.15  2.97
1921.0  12429.58  382.80  3.08
1923.7  12476.24  393.53  3.15
1926.5  12456.75  384.28  3.08
1929.2  12429.04  375.18  3.02
1932.0  12425.12  383.41  3.09
1934.7  12406.61  385.62  3.11
1937.4  12332.23  374.27  3.03
1940.2  12287.19  386.22  3.14
1942.9  12341.39  389.76  3.16
1945.6  12357.84  380.52  3.08
1948.3  12310.10  381.06  3.10
1951.1  12286.82  375.25  3.05
1953.8  12285.00  378.00  3.08
1956.5  12213.61  383.36  3.14
1959.2  12244.05  383.72  3.13
1961.9  12277.60  383.43  3.12
1964.6  12227.25  375.84  3.07
1967.3  12243.43  378.74  3.09
1970.0  12130.08  375.92  3.10
1972.8  12063.78  377.51  3.13
1975.5  12116.40  387.30  3.20
1978.2  12077.12  383.49  3.18
1980.9  11995.23  384.78  3.21
1983.5  11947.43  400.38  3.35
1986.2  11960.10  381.21  3.19
1988.9  11951.37  388.00  3.25
1991.6  11858.95  392.98  3.31
1994.3  11764.18  379.33  3.22
1997.0  11766.88  403.66  3.43
1999.7  11773.83  408.73  3.47
2002.3  11759.81  384.52  3.27
2005.0  11690.77  397.94  3.40
2007.7  11638.67  400.38  3.44
2010.4  11594.16  393.04  3.39
2013.0  11562.08  399.25  3.45
2015.7  11497.38  386.47  3.36
2018.4  11428.93  394.30  3.45
2021.0  11415.50  402.33  3.52
2023.7  11337.76  391.02  3.45
2026.4  11289.20  397.15  3.52
2029.0  11241.04  407.69  3.63
2031.7  11159.63  395.27  3.54
2034.3  11170.90  404.66  3.62
2037.0  11088.29  408.18  3.68
2039.6  11036.71  398.56  3.61
2042.3  11025.52  401.59  3.64
2044.9  10984.38  404.86  3.69
2047.5  10945.11  404.86  3.70
2050.2  10866.80  401.33  3.69
2052.8  10875.20  414.40  3.81
2055.4  10794.82  415.58  3.85
2058.1  10693.20  399.47  3.74
2060.7  10690.88  405.28  3.79
2063.3  10636.71  414.29  3.89
2065.9  10588.79  396.42  3.74
2068.6  10527.38  406.65  3.86
2071.2  10509.93  420.36  4.00
2073.8  10479.76  406.69  3.88
2076.4  10429.57  414.45  3.97
2079.0  10413.86  422.44  4.06
2081.6  10426.21  422.94  4.06
2084.2  10409.13  422.31  4.06
2086.8  10317.76  417.65  4.05
2089.4  10237.53  406.59  3.97
2092.1  10185.83  410.83  4.03
2094.7  10161.53  413.39  4.07
2097.2  10134.83  416.50  4.11
2099.8  10154.06  441.24  4.35
2102.4  10079.62  425.55  4.22
2105.0  9975.00  406.60  4.08
2107.6  9943.53  431.05  4.33
2110.2  9903.21  438.56  4.43
2112.8  9887.09  419.95  4.25
2115.3  9921.47  427.23  4.31
2117.9  9932.41  439.12  4.42
2120.5  9899.34  435.31  4.40
2123.1  9860.18  427.05  4.33
2125.6  9830.42  422.66  4.30
2128.2  9760.43  439.00  4.50
2130.8  9696.38  445.58  4.60
2133.3  9680.00  439.02  4.54
2135.9  9631.02  423.60  4.40
2138.4  9558.99  431.20  4.51
2141.0  9487.88  427.04  4.50
2143.6  9445.83  409.46  4.33
2146.1  9343.90  417.25  4.47
2148.7  9250.50  425.82  4.60
2151.2  9289.87  421.42  4.54
2153.8  9283.27  434.63  4.68
2156.3  9196.68  429.22  4.67
2158.8  9167.15  413.47  4.51
2161.4  9136.89  428.49  4.69
2163.9  9080.87  417.68  4.60
2166.4  9038.53  408.02  4.51
2169.0  9026.70  420.83  4.66
2171.5  8964.61  417.88  4.66
2174.0  8877.40  402.62  4.54
2176.5  8859.37  409.63  4.62
2179.1  8821.17  417.62  4.73
2181.6  8799.54  410.62  4.67
2184.1  8784.16  417.85  4.76
2186.6  8784.20  411.12  4.68
2189.1  8744.04  389.48  4.45
2191.6  8708.93  398.53  4.58
2194.1  8706.09  406.35  4.67
2196.6  8712.45  405.34  4.65
2199.2  8755.72  413.95  4.73
2201.7  8703.45  403.53  4.64
2204.1  8678.72  409.26  4.72
2206.6  8675.98  419.00  4.83
2209.1  8675.22  403.73  4.65
2211.6  8663.97  412.39  4.76
2214.1  8610.78  421.98  4.90
2216.6  8633.61  416.55  4.82
2219.1  8660.20  402.63  4.65
2221.6  8580.23  411.12  4.79
2224.0  8522.97  407.67  4.78
2226.5  8511.79  388.11  4.56
2229.0  8530.74  408.58  4.79
2231.5  8441.32  405.98  4.81
2233.9  8443.24  396.38  4.69
2236.4  8476.56  389.86  4.60
2238.9  8385.50  374.59  4.47
2241.3  8391.31  377.01  4.49
2243.8  8383.54  399.03  4.76
2246.2  8253.42  394.13  4.78
2248.7  8237.84  370.24  4.49
2251.2  8236.26  389.46  4.73
2253.6  8194.56  381.44  4.65
2256.1  8190.72  363.52  4.44
2258.5  8190.43  402.09  4.91
2260.9  8134.04  368.16  4.53
2263.4  8110.40  349.29  4.31
2265.8  8131.85  387.23  4.76
2268.3  8069.96  372.01  4.61
2270.7  8098.88  348.01  4.30
2273.1  8065.01  347.71  4.31
2275.6  8029.44  349.44  4.35
2278.0  8032.57  347.18  4.32
2280.4  8050.71  351.48  4.37
2282.8  7960.15  338.13  4.25
2285.3  7901.09  322.73  4.08
2287.7  7985.73  339.74  4.25
2290.1  7946.20  341.31  4.30
2292.5  7920.79  324.08  4.09
2294.9  7927.04  334.58  4.22
2297.3  7846.72  350.68  4.47
2299.7  7809.80  325.08  4.16
2302.1  7774.17  323.44  4.16
2304.5  7698.88  331.89  4.31
2306.9  7651.84  295.31  3.86
2309.3  7605.49  295.18  3.88
2311.7  7551.70  311.39  4.12
2314.1  7431.64  284.87  3.83
2316.5  7403.26  299.44  4.04
2318.9  7422.16  302.20  4.07
2321.3  7384.55  279.96  3.79
2323.7  7411.63  315.47  4.26
2326.1  7407.14  323.74  4.37
2328.4  7416.57  303.77  4.10
2330.8  7456.07  327.20  4.39
2333.2  7380.05  312.99  4.24
2335.6  7348.45  290.62  3.95
2337.9  7374.28  308.83  4.19
2340.3  7351.28  313.48  4.26
2342.7  7303.86  291.99  4.00
2345.0  7304.27  298.68  4.09
2347.4  7310.00  306.00  4.19
2349.7  7167.86  286.20  3.99
2352.1  7105.77  305.90  4.30
2354.4  7122.34  280.82  3.94
2356.8  7109.55  259.00  3.64
2359.2  7054.67  300.44  4.26
2361.5  7016.24  296.70  4.23
2363.8  7061.80  283.99  4.02
2366.2  7030.44  272.15  3.87
2368.5  6995.40  262.55  3.75
2370.9  6987.35  266.91  3.82
2373.2  6974.33  262.31  3.76
2375.5  6914.20  268.49  3.88
2377.9  6855.73  253.75  3.70
2380.2  6895.41  268.79  3.90
2382.5  6832.77  284.89  4.17
2384.8  6779.04  245.92  3.63
2387.2  6826.21  276.61  4.05
2389.5  6803.92  284.87  4.19
2391.8  6773.50  223.41  3.30
2394.1  6708.07  231.92  3.46
2396.4  6696.25  248.37  3.71
2398.7  6727.77  246.83  3.67
2401.0  6675.75  247.25  3.70
2403.3  6633.36  244.02  3.68
2405.6  6587.80  223.26  3.39
2407.9  6548.07  228.79  3.49
2410.2  6522.35  264.04  4.05
2412.5  6494.37  223.59  3.44
2414.8  6495.78  208.83  3.21
2417.1  6477.89  220.23  3.40
2419.4  6418.72  208.40  3.25
2421.7  6381.59  254.07  3.98
2424.0  6340.00  255.36  4.03
2426.2  6377.20  224.70  3.52
2428.5  6376.43  239.77  3.76
2430.8  6305.65  205.28  3.26
2433.1  6272.91  188.08  3.00
2435.4  6216.05  229.40  3.69
2437.6  6193.67  225.67  3.64
2439.9  6131.58  202.14  3.30
2442.2  6143.40  208.57  3.40
2444.4  6156.85  225.90  3.67
2446.7  6096.96  200.51  3.29
2448.9  6140.77  189.50  3.09
2451.2  6097.08  194.69  3.19
2453.4  6044.75  202.90  3.36
2455.7  6045.18  220.97  3.66
2457.9  5958.48  238.10  4.00
2460.2  5967.72  205.50  3.44
2462.4  5959.20  174.72  2.93
2464.7  5866.75  178.74  3.05
2466.9  5842.20  224.70  3.85
2469.2  5878.87  237.66  4.04
2471.4  5796.90  203.52  3.51
2473.6  5704.14  198.62  3.48
2475.9  5730.24  221.26  3.86
2478.1  5690.78  173.07  3.04
2480.3  5611.10  150.84  2.69
2482.5  5590.00  223.98  4.01
2484.8  5592.32  218.45  3.91
2487.0  5577.22  170.35  3.05
2489.2  5540.68  196.00  3.54
2491.4  5525.52  217.74  3.94
2493.6  5479.00  169.83  3.10
2495.8  5487.41  187.40  3.42
2498.0  5504.43  191.86  3.49
2500.2  5484.68  162.89  2.97
2502.4  5700.96  207.20  3.63
2504.6  5765.46  219.10  3.80
2506.8  5747.58  188.34  3.28
