/*** Spectra Vista SIG Data ***/
name= GB1.sig
comm= Resampled spectral data SIG file reprocesed for matching/overlap;Averaged Ref/Tar of files: GD6B1,GD6B2,GD6B3
data=
346.0  350.35  66.89  19.09
356.0  548.37  82.52  15.05
366.0  733.51  97.34  13.27
376.0  1020.12  116.38  11.41
386.0  1277.04  130.91  10.25
396.0  1627.44  163.20  10.03
406.0  1981.59  177.19  8.94
416.0  2426.66  216.00  8.90
426.0  2760.20  244.43  8.86
436.0  3371.96  294.35  8.73
446.0  3932.55  344.28  8.75
456.0  4458.34  393.16  8.82
466.0  5321.78  475.52  8.94
476.0  6071.69  560.75  9.24
486.0  6545.75  596.98  9.12
496.0  7607.89  706.11  9.28
506.0  8454.78  814.78  9.64
516.0  8783.27  898.26  10.23
526.0  9763.90  1045.82  10.71
536.0  11118.00  1255.73  11.29
546.0  12245.42  1471.58  12.02
556.0  12328.74  1580.30  12.82
566.0  13155.91  1823.11  13.86
576.0  14507.55  2184.38  15.06
586.0  15570.89  2547.54  16.36
596.0  16431.40  2910.21  17.71
606.0  16712.83  3180.05  19.03
616.0  17829.88  3665.32  20.56
626.0  19660.82  4673.79  23.77
636.0  19333.08  4900.06  25.35
646.0  19460.12  4844.87  24.90
656.0  19022.71  4972.84  26.14
666.0  20100.61  5270.97  26.22
676.0  21420.32  5905.52  27.57
686.0  23296.24  7398.24  31.76
696.0  23938.75  8547.93  35.71
706.0  24146.65  9301.84  38.52
716.0  23692.80  9723.66  41.04
726.0  22909.23  9957.96  43.47
736.0  22412.65  10208.19  45.55
746.0  23689.99  11274.72  47.59
756.0  24146.35  12062.89  49.96
766.0  25173.28  12997.91  51.63
776.0  25830.00  13801.87  53.43
786.0  26006.50  14317.53  55.05
796.0  25488.24  14536.38  57.03
806.0  24760.71  14507.09  58.59
816.0  24660.03  14738.10  59.77
826.0  24490.65  14845.99  60.62
836.0  24813.24  15051.65  60.66
846.0  25390.01  15550.76  61.25
856.0  25793.23  16014.56  62.09
866.0  25937.23  16241.77  62.62
876.0  25978.67  16318.25  62.81
886.0  26066.82  16330.95  62.65
896.0  25797.95  16006.17  62.04
906.0  25784.12  15758.65  61.12
916.0  25585.58  15280.08  59.72
926.0  25562.63  14534.18  56.86
936.0  26313.67  13778.90  52.36
946.0  26990.41  12760.23  47.28
956.0  27679.08  11536.28  41.68
966.0  28223.03  11116.18  39.39
976.0  28734.35  11330.39  39.43
986.0  29617.10  9982.50  33.71
996.0  29682.46  10462.30  35.25
1006.0  29574.85  10899.39  36.85
1016.0  29765.57  11613.34  39.02
1026.0  29729.52  12309.16  41.40
1036.0  29515.06  12944.66  43.86
1046.0  29711.45  13677.38  46.03
1056.0  29893.15  14229.33  47.60
1066.0  29897.52  14478.63  48.43
1076.0  29800.79  14411.85  48.36
1086.0  29886.99  14198.62  47.51
1096.0  29929.51  13724.65  45.86
1106.0  29866.48  13114.07  43.91
1116.0  29674.06  12424.99  41.87
1126.0  29628.74  11401.89  38.48
1136.0  29657.68  9687.67  32.66
1146.0  29635.14  7965.27  26.88
1156.0  29553.21  7030.11  23.79
1166.0  29503.66  6701.03  22.71
1176.0  29484.94  6539.10  22.18
1186.0  29538.64  6446.79  21.82
1196.0  29214.89  6297.72  21.56
1206.0  28979.48  6246.67  21.56
1216.0  28818.50  6271.33  21.76
1226.0  28656.56  6328.34  22.08
1236.0  28531.50  6392.66  22.41
1246.0  28361.18  6425.14  22.65
1256.0  28203.68  6453.27  22.88
1266.0  28029.85  6402.49  22.84
1276.0  28088.39  6350.35  22.61
1286.0  28124.94  6201.12  22.05
1296.0  27958.41  5928.56  21.20
1306.0  27627.28  5522.08  19.99
1316.0  27221.07  5050.73  18.55
1326.0  26818.19  4563.32  17.02
1336.0  26392.47  4130.67  15.65
1346.0  25960.75  3753.91  14.46
1356.0  25324.13  3431.32  13.55
1366.0  24931.33  3166.80  12.70
1376.0  24859.99  2849.56  11.46
1386.0  24632.06  2404.54  9.76
1396.0  24380.47  1959.87  8.04
1406.0  24113.09  1660.12  6.88
1416.0  24100.63  1508.02  6.26
1426.0  24059.20  1423.06  5.91
1436.0  23972.09  1382.46  5.77
1446.0  23864.15  1355.81  5.68
1456.0  23721.80  1340.11  5.65
1466.0  23605.52  1344.68  5.70
1476.0  23392.42  1369.28  5.85
1486.0  23242.80  1431.60  6.16
1496.0  23046.32  1507.75  6.54
1506.0  22839.62  1547.41  6.78
1516.0  22613.88  1565.15  6.92
1526.0  22400.45  1604.79  7.16
1536.0  22235.76  1654.18  7.44
1546.0  22015.88  1703.93  7.74
1556.0  21843.28  1746.82  8.00
1566.0  21667.65  1778.40  8.21
1576.0  21395.50  1828.69  8.55
1586.0  21183.04  1848.91  8.73
1596.0  20952.60  1862.95  8.89
1606.0  20718.70  1874.12  9.05
1616.0  20474.49  1884.03  9.20
1626.0  20247.31  1891.85  9.34
1636.0  19983.73  1898.49  9.50
1646.0  19698.46  1900.21  9.65
1656.0  19408.32  1884.44  9.71
1666.0  19124.83  1866.55  9.76
1676.0  18864.06  1835.91  9.73
1686.0  18855.84  1821.28  9.66
1696.0  18634.96  1781.49  9.56
1706.0  18370.29  1725.43  9.39
1716.0  17962.80  1647.06  9.17
1726.0  17703.75  1584.89  8.95
1736.0  17485.45  1548.25  8.85
1746.0  17265.19  1497.31  8.67
1756.0  16948.63  1441.14  8.50
1766.0  16694.46  1392.79  8.34
1776.0  16556.01  1368.66  8.27
1786.0  16371.39  1329.28  8.12
1796.0  16140.67  1304.26  8.08
1806.0  15938.14  1286.36  8.07
1816.0  15678.97  1261.96  8.05
1826.0  15392.26  1234.59  8.02
1836.0  15002.97  1192.46  7.95
1846.0  14761.21  1145.77  7.76
1856.0  14556.19  1069.75  7.35
1866.0  14407.28  999.17  6.94
1876.0  14196.45  896.73  6.32
1886.0  14007.84  763.50  5.45
1896.0  13666.82  689.30  5.04
1906.0  12741.66  393.78  3.09
1916.0  12564.20  369.43  2.94
1926.0  12460.23  385.93  3.10
1936.0  12370.80  380.16  3.07
1946.0  12350.77  380.60  3.08
1956.0  12226.83  382.37  3.13
1966.0  12235.64  377.34  3.08
1976.0  12109.13  386.59  3.19
1986.0  11959.16  382.63  3.20
1996.0  11765.88  394.65  3.35
2006.0  11671.47  398.84  3.42
2016.0  11489.77  387.34  3.37
2026.0  11296.39  396.24  3.51
2036.0  11118.89  406.88  3.66
2046.0  10967.77  404.86  3.69
2056.0  10772.24  412.00  3.82
2066.0  10586.51  396.80  3.75
2076.0  10437.29  413.26  3.96
2086.0  10345.87  419.08  4.05
2096.0  10147.65  415.01  4.09
2106.0  9962.90  416.00  4.18
2116.0  9924.42  430.43  4.34
2126.0  9819.65  425.17  4.33
2136.0  9628.14  423.90  4.40
2146.0  9347.98  416.94  4.46
2156.0  9207.07  429.87  4.67
2166.0  9045.30  409.57  4.53
2176.0  8862.98  408.23  4.61
2186.0  8784.19  412.74  4.70
2196.0  8710.92  405.58  4.66
2206.0  8676.64  416.66  4.80
2216.0  8628.13  417.85  4.84
2226.0  8514.03  392.02  4.60
2236.0  8471.23  390.90  4.61
2246.0  8264.26  394.54  4.77
2256.0  8190.87  364.24  4.45
2266.0  8126.90  386.01  4.75
2276.0  8029.96  349.06  4.35
2286.0  7925.78  327.69  4.13
2296.0  7890.23  341.96  4.33
2306.0  7669.48  309.03  4.03
2316.0  7409.17  296.40  4.00
2326.0  7407.33  323.40  4.37
2336.0  7352.94  293.79  4.00
2346.0  7306.66  301.73  4.13
2356.0  7113.81  266.27  3.74
2366.0  7033.05  273.14  3.88
2376.0  6902.02  265.42  3.85
2386.0  6802.63  261.27  3.84
2396.0  6698.31  245.51  3.67
2406.0  6580.89  224.22  3.41
2416.0  6486.45  214.78  3.31
2426.0  6373.82  227.49  3.57
2436.0  6209.95  228.38  3.68
2446.0  6115.19  208.24  3.41
2456.0  6033.36  223.31  3.70
2466.0  5852.24  205.90  3.52
2476.0  5728.44  219.07  3.82
2486.0  5584.08  192.21  3.44
2496.0  5488.96  187.81  3.42
2506.0  5754.08  199.53  3.47
