/*** Spectra Vista SIG Data ***/
name= AODF.sig
comm= Averaged Ref/Tar of files: AODF1,AODF2,AODF3
data=
346.4  509.60  105.32  20.67
347.9  536.51  103.33  19.26
349.5  577.20  105.66  18.31
351.1  620.88  105.66  17.02
352.6  679.94  107.53  15.81
354.2  723.22  111.70  15.45
355.7  777.89  118.99  15.30
357.3  842.60  121.59  14.43
358.8  838.80  119.29  14.22
360.4  904.00  123.82  13.70
361.9  943.76  122.12  12.94
363.5  997.20  129.27  12.96
365.1  1040.25  131.77  12.67
366.6  1087.54  133.04  12.23
368.2  1161.70  126.24  10.87
369.7  1204.79  122.77  10.19
371.3  1287.37  137.85  10.71
372.8  1354.56  135.90  10.03
374.4  1435.13  139.73  9.74
375.9  1463.02  140.34  9.59
377.4  1512.41  142.24  9.40
379.0  1578.52  140.88  8.92
380.5  1618.77  145.26  8.97
382.1  1669.58  137.90  8.26
383.6  1726.52  136.84  7.93
385.2  1809.50  137.87  7.62
386.7  1900.67  140.43  7.39
388.3  1991.93  142.40  7.15
389.8  2077.97  144.94  6.97
391.3  2163.95  153.73  7.10
392.9  2236.17  157.04  7.02
394.4  2293.88  162.22  7.07
395.9  2364.42  169.98  7.19
397.5  2493.56  175.71  7.05
399.0  2617.23  176.34  6.74
400.6  2691.33  171.69  6.38
402.1  2739.96  167.53  6.11
403.6  2797.88  166.23  5.94
405.1  2865.39  160.26  5.59
406.7  2979.20  166.35  5.58
408.2  3089.54  171.67  5.56
409.7  3183.04  176.51  5.55
411.3  3295.62  181.77  5.52
412.8  3391.47  182.96  5.39
414.3  3507.27  194.49  5.55
415.8  3622.50  202.00  5.58
417.4  3739.34  212.18  5.67
418.9  3830.42  210.50  5.50
420.4  3913.23  218.68  5.59
421.9  3978.48  217.80  5.47
423.5  4044.22  221.67  5.48
425.0  4110.68  223.85  5.45
426.5  4198.95  221.59  5.28
428.0  4314.36  226.32  5.25
429.5  4445.73  230.94  5.19
431.1  4599.50  238.39  5.18
432.6  4769.72  244.80  5.13
434.1  4937.63  256.41  5.19
435.6  5085.18  264.71  5.21
437.1  5233.80  273.00  5.22
438.6  5364.45  276.41  5.15
440.1  5501.44  287.06  5.22
441.6  5653.06  294.77  5.21
443.1  5799.60  299.43  5.16
444.7  5941.01  307.15  5.17
446.2  6051.88  314.63  5.20
447.7  6161.82  323.05  5.24
449.2  6292.08  325.73  5.18
450.7  6396.00  329.19  5.15
452.2  6529.70  329.07  5.04
453.7  6647.26  335.00  5.04
455.2  6815.62  338.18  4.96
456.7  7013.60  350.12  4.99
458.2  7232.90  358.82  4.96
459.7  7456.75  370.77  4.97
461.2  7667.16  380.06  4.96
462.7  7858.10  393.32  5.01
464.2  8041.02  406.50  5.06
465.7  8240.35  418.30  5.08
467.2  8402.63  428.12  5.10
468.7  8584.00  441.60  5.14
470.2  8698.25  458.05  5.27
471.7  8877.75  474.37  5.34
473.2  9159.71  489.71  5.35
474.6  9386.40  486.93  5.19
476.1  9450.96  489.30  5.18
477.6  9499.75  489.90  5.16
479.1  9557.87  495.26  5.18
480.6  9632.82  500.77  5.20
482.1  9760.73  509.01  5.21
483.6  9935.74  518.69  5.22
485.1  10133.78  530.99  5.24
486.6  10366.07  549.82  5.30
488.0  10621.00  567.88  5.35
489.5  10873.80  591.95  5.44
491.0  11134.31  612.75  5.50
492.5  11404.80  640.65  5.62
494.0  11683.71  670.35  5.74
495.4  11917.95  699.38  5.87
496.9  12154.26  731.24  6.02
498.4  12387.41  762.53  6.16
499.9  12623.63  797.38  6.32
501.4  12839.71  835.27  6.51
502.8  13042.06  872.54  6.69
504.3  13226.40  908.40  6.87
505.8  13406.54  948.11  7.07
507.2  13518.16  984.10  7.28
508.7  13603.31  1022.27  7.51
510.2  13672.60  1057.71  7.74
511.6  13715.26  1088.78  7.94
513.1  13806.21  1123.99  8.14
514.6  13898.29  1164.61  8.38
516.0  13992.63  1196.42  8.55
517.5  14151.40  1241.91  8.78
519.0  14339.95  1288.80  8.99
520.5  14520.56  1340.43  9.23
521.9  14760.83  1393.85  9.44
523.4  15031.28  1453.58  9.67
524.8  15295.25  1520.54  9.94
526.3  15594.01  1589.62  10.19
527.8  15909.50  1660.76  10.44
529.2  16189.50  1729.89  10.69
530.7  16509.28  1808.24  10.95
532.1  16791.25  1882.62  11.21
533.6  17121.20  1962.13  11.46
535.0  17454.94  2046.89  11.73
536.5  17789.22  2132.05  11.99
538.0  18136.88  2222.23  12.25
539.4  18461.69  2311.99  12.52
540.9  18864.39  2413.25  12.79
542.3  19206.33  2510.65  13.07
543.8  19460.81  2589.93  13.31
545.2  19544.37  2649.25  13.56
546.6  19566.05  2706.21  13.83
548.1  19604.97  2758.71  14.07
549.5  19640.65  2814.49  14.33
551.0  19664.79  2864.12  14.56
552.4  19724.92  2922.07  14.81
553.9  19761.60  2975.70  15.06
555.3  19812.20  3033.81  15.31
556.8  19934.49  3099.35  15.55
558.2  20047.50  3165.08  15.79
559.6  20200.16  3236.26  16.02
561.1  20397.00  3319.55  16.27
562.5  20617.77  3403.92  16.51
564.0  20901.40  3502.00  16.75
565.4  21161.13  3598.30  17.00
566.8  21482.31  3708.55  17.26
568.3  21793.28  3815.30  17.51
569.7  22118.60  3927.98  17.76
571.1  22425.71  4042.10  18.02
572.6  22741.56  4156.71  18.28
574.0  23030.70  4269.54  18.54
575.4  23309.44  4385.03  18.81
576.9  23581.06  4498.72  19.08
578.3  23822.01  4606.51  19.34
579.7  24048.22  4721.84  19.63
581.1  24227.75  4827.13  19.92
582.6  24429.78  4934.63  20.20
584.0  24600.48  5044.19  20.50
585.4  24853.74  5168.25  20.79
586.8  25196.68  5309.37  21.07
588.3  25573.86  5463.12  21.36
589.7  25896.78  5604.45  21.64
591.1  26104.75  5725.37  21.93
592.5  26211.06  5826.09  22.23
594.0  26269.26  5918.52  22.53
595.4  26286.44  5994.42  22.80
596.8  26295.56  6074.93  23.10
598.2  26315.92  6160.07  23.41
599.6  26317.98  6240.91  23.71
601.0  26398.05  6335.26  24.00
602.4  26470.93  6434.02  24.31
603.9  26597.64  6537.91  24.58
605.3  26727.57  6655.55  24.90
606.7  26857.80  6761.28  25.17
608.1  27088.39  6900.41  25.47
609.5  27333.21  7039.29  25.75
610.9  27623.29  7195.94  26.05
612.3  27891.32  7347.38  26.34
613.7  28252.28  7519.94  26.62
615.1  28513.62  7659.79  26.86
616.5  28776.05  7810.57  27.14
617.9  29165.50  7996.05  27.42
619.3  29543.24  8185.71  27.71
620.7  29990.55  8403.39  28.02
622.1  30437.05  8532.62  28.03
623.5  30934.60  8619.80  27.86
624.9  31494.75  8713.92  27.67
626.3  31867.36  8771.93  27.53
627.7  31569.69  8693.16  27.54
629.1  31287.59  8663.35  27.69
630.5  31184.65  8745.17  28.04
631.9  31222.21  8899.04  28.50
633.3  31256.33  9045.95  28.94
634.7  31400.48  9206.46  29.32
636.1  31461.82  9309.56  29.59
637.5  31554.77  9425.30  29.87
638.9  31702.82  9582.73  30.23
640.2  31825.04  9785.03  30.75
641.6  31863.78  9958.42  31.25
643.0  31847.61  10133.53  31.82
644.4  31829.55  10309.35  32.39
645.8  31751.71  10389.62  32.72
647.2  31867.94  10515.61  33.00
648.5  31926.34  10652.33  33.37
649.9  31776.23  10747.39  33.82
651.3  31648.05  10891.90  34.42
652.7  31449.15  11001.04  34.98
654.1  31244.46  10899.11  34.88
655.5  31005.95  10725.83  34.59
656.8  30780.41  10587.95  34.40
658.2  30925.42  10605.72  34.29
659.6  31264.45  10716.22  34.28
660.9  31536.04  10838.29  34.37
662.3  31822.64  10971.91  34.48
663.7  32096.40  11093.88  34.56
665.0  32332.90  11208.01  34.66
666.4  32562.99  11336.85  34.82
667.8  32863.56  11492.11  34.97
669.1  33114.69  11611.78  35.07
670.5  33405.09  11760.44  35.21
671.9  33586.56  11876.34  35.36
673.2  33844.75  12025.42  35.53
674.6  34082.18  12167.24  35.70
676.0  34372.41  12336.35  35.89
677.3  34659.68  12508.27  36.09
678.7  34979.63  12685.12  36.26
680.0  35399.92  12905.42  36.46
681.4  35845.89  13133.81  36.64
682.8  36270.33  13356.98  36.83
684.1  36705.24  13593.53  37.03
685.5  37104.21  13817.58  37.24
686.8  37507.62  14025.28  37.39
688.2  37862.83  14217.87  37.55
689.5  38000.96  14333.62  37.72
690.9  38124.79  14441.40  37.88
692.2  38229.60  14538.74  38.03
693.6  38334.37  14647.66  38.21
694.9  38335.34  14713.83  38.38
696.2  38393.33  14794.29  38.53
697.6  38453.39  14865.48  38.66
698.9  38522.88  14959.30  38.83
700.3  38613.54  15059.15  39.00
701.6  38716.02  15163.55  39.17
703.0  38828.83  15268.48  39.32
704.3  38882.19  15335.93  39.44
705.6  38895.39  15397.82  39.59
707.0  38949.12  15476.72  39.74
708.3  38885.46  15498.04  39.86
709.6  38817.35  15518.14  39.98
711.0  38702.88  15514.68  40.09
712.3  38573.15  15512.75  40.22
713.6  38531.64  15536.53  40.32
714.9  38462.14  15564.19  40.47
716.3  38461.08  15609.49  40.59
717.6  38479.84  15660.43  40.70
718.9  38424.85  15675.31  40.79
720.2  38251.08  15625.92  40.85
721.6  38113.53  15597.44  40.92
722.9  37945.16  15584.67  41.07
724.2  37714.27  15543.56  41.21
725.5  37534.96  15532.57  41.38
726.8  37360.68  15508.13  41.51
728.1  37271.09  15517.92  41.64
729.5  37167.13  15518.65  41.75
730.8  37093.13  15542.80  41.90
732.1  36996.92  15549.26  42.03
733.4  36936.39  15579.40  42.18
734.7  36864.47  15594.57  42.30
736.0  36851.62  15644.62  42.45
737.3  36774.45  15664.38  42.60
738.6  36845.76  15755.64  42.76
739.9  37000.34  15891.49  42.95
741.2  37119.81  15983.24  43.06
742.5  37372.03  16162.25  43.25
743.8  37768.50  16408.32  43.44
745.1  38387.22  16756.57  43.65
746.4  39127.73  17123.41  43.76
747.7  39918.22  17487.53  43.81
749.0  40672.12  17831.79  43.84
750.3  41122.66  18014.36  43.81
751.6  41047.35  17991.03  43.83
752.9  40630.59  17862.30  43.96
754.2  40176.47  17724.99  44.12
755.4  39652.21  17566.83  44.30
756.7  39478.17  17571.29  44.51
758.0  39495.60  17647.87  44.68
759.3  39730.28  17829.80  44.88
760.6  40061.56  18078.37  45.13
761.9  40384.10  18306.38  45.33
763.1  40567.56  18446.54  45.47
764.4  40796.65  18615.49  45.63
765.7  40953.25  18745.13  45.77
767.0  41079.80  18840.98  45.86
768.2  41207.04  18945.47  45.98
769.5  41279.98  19040.03  46.12
770.8  41469.61  19176.04  46.24
772.0  41501.32  19248.40  46.38
773.3  41583.65  19358.32  46.55
774.6  41708.58  19455.44  46.65
775.8  41815.15  19536.66  46.72
777.1  41846.51  19592.00  46.82
778.4  41799.94  19604.61  46.90
779.6  41775.90  19646.33  47.03
780.9  41704.00  19682.67  47.20
782.1  41523.21  19671.26  47.37
783.4  41558.40  19723.95  47.46
784.6  41567.36  19788.44  47.61
785.9  41861.56  20004.59  47.79
787.1  42409.87  20334.52  47.95
788.4  42854.47  20552.28  47.96
789.6  42849.18  20461.32  47.75
790.9  42483.96  20235.75  47.63
792.1  42011.92  20050.94  47.73
793.4  41570.15  19883.12  47.83
794.6  41283.15  19778.23  47.91
795.8  41024.39  19709.87  48.04
797.1  40758.68  19626.14  48.15
798.3  40551.64  19588.69  48.31
799.5  40444.72  19565.54  48.38
800.8  40323.21  19549.33  48.48
802.0  40187.32  19523.39  48.58
803.2  40033.64  19483.61  48.67
804.5  39942.72  19467.86  48.74
805.7  39829.66  19448.56  48.83
806.9  39715.93  19423.71  48.91
808.1  39632.97  19428.26  49.02
809.4  39553.39  19444.70  49.16
810.6  39489.45  19444.88  49.24
811.8  39474.39  19489.83  49.37
813.0  39504.71  19559.76  49.51
814.2  39525.61  19633.55  49.67
815.4  39644.33  19725.24  49.76
816.6  39709.73  19756.64  49.75
817.9  39791.57  19804.36  49.77
819.1  39719.87  19803.30  49.86
820.3  39621.11  19769.71  49.90
821.5  39546.25  19753.27  49.95
822.7  39480.04  19754.77  50.04
823.9  39499.25  19808.98  50.15
825.1  39541.96  19848.87  50.20
826.3  39583.35  19913.11  50.31
827.5  39640.56  19982.93  50.41
828.7  39708.48  20040.89  50.47
829.9  39767.03  20100.71  50.55
831.0  39870.82  20210.65  50.69
832.2  39993.87  20310.04  50.78
833.4  40076.64  20386.64  50.87
834.6  40148.44  20484.38  51.02
835.8  40238.10  20582.10  51.15
837.0  40328.28  20699.22  51.33
838.1  40500.72  20816.74  51.40
839.3  40601.19  20899.44  51.47
840.5  40716.87  21009.03  51.60
841.7  40854.11  21160.82  51.80
842.9  40980.73  21294.36  51.96
844.0  41100.82  21406.31  52.08
845.2  41245.09  21525.61  52.19
846.4  41368.25  21631.12  52.29
847.5  41564.18  21796.10  52.44
848.7  41743.64  21928.47  52.53
849.9  41936.76  22026.44  52.52
851.0  42020.98  22068.83  52.52
852.2  42107.61  22106.35  52.50
853.3  42066.96  22109.27  52.56
854.5  42098.11  22129.80  52.57
855.6  42095.43  22174.32  52.68
856.8  42111.00  22216.10  52.76
857.9  42111.88  22262.61  52.87
859.1  42240.60  22367.95  52.95
860.2  42245.56  22407.04  53.04
861.4  42273.83  22456.90  53.12
862.5  42309.54  22505.68  53.19
863.7  42384.63  22578.04  53.27
864.8  42387.10  22614.43  53.35
865.9  42333.82  22633.81  53.47
867.1  42372.33  22659.75  53.48
868.2  42368.54  22705.01  53.59
869.3  42393.50  22727.45  53.61
870.5  42342.80  22702.04  53.61
871.6  42318.48  22748.88  53.76
872.7  42385.23  22841.21  53.89
873.9  42404.90  22864.20  53.92
875.0  42391.36  22885.92  53.99
876.1  42363.75  22892.85  54.04
877.2  42397.32  22950.27  54.13
878.3  42381.77  22956.19  54.17
879.4  42397.70  22986.60  54.22
880.5  42451.56  23026.13  54.24
881.7  42410.55  23024.56  54.29
882.8  42454.72  23053.74  54.30
883.9  42482.63  23064.92  54.29
885.0  42446.04  23021.18  54.24
886.1  42420.10  23001.04  54.22
887.2  42295.80  22946.89  54.25
888.3  42201.80  22886.51  54.23
889.4  42117.30  22824.86  54.19
890.5  42026.34  22813.87  54.28
891.6  41981.69  22796.85  54.30
892.7  41962.31  22779.19  54.28
893.8  41981.79  22854.23  54.44
894.9  41952.35  22888.30  54.56
896.0  41968.71  22870.33  54.49
897.0  41952.48  22907.68  54.60
898.1  41951.64  22946.32  54.70
899.2  41983.30  22949.00  54.66
900.3  41907.57  22915.36  54.68
901.4  41820.39  22892.48  54.74
902.4  41828.99  22933.82  54.83
903.5  41775.96  22896.60  54.81
904.6  41798.96  22928.00  54.85
905.7  41805.42  22952.52  54.90
906.7  41815.90  22953.14  54.89
907.8  41839.20  22980.57  54.93
908.9  41746.38  22976.06  55.04
909.9  41734.69  22979.63  55.06
911.0  41681.88  22960.01  55.08
912.1  41602.05  22908.99  55.07
913.1  41535.52  22870.23  55.06
914.2  41457.24  22835.90  55.08
915.2  41368.59  22849.13  55.23
916.3  41436.15  22853.70  55.15
917.3  41410.15  22868.02  55.22
918.4  41310.50  22831.34  55.27
919.4  41328.17  22835.53  55.25
920.5  41309.67  22837.56  55.28
921.5  41323.66  22872.29  55.35
922.6  41255.80  22837.27  55.36
923.6  41303.54  22857.25  55.34
924.7  41344.50  22880.30  55.34
925.7  41333.16  22892.88  55.39
926.7  41356.90  22906.82  55.39
927.8  41415.30  22915.66  55.33
928.8  41570.85  22994.70  55.31
929.9  41658.93  23036.57  55.30
930.9  41879.39  23151.65  55.28
931.9  42070.56  23298.72  55.38
932.9  42412.10  23466.63  55.33
934.0  42452.50  23497.49  55.35
935.0  42440.57  23506.87  55.39
936.0  42488.02  23533.65  55.39
937.0  42429.47  23518.79  55.43
938.1  42380.86  23520.50  55.50
939.1  42337.65  23541.48  55.60
940.1  42429.30  23583.97  55.58
941.1  42615.86  23692.98  55.60
942.1  42903.92  23796.91  55.47
943.1  43057.09  23927.65  55.57
944.1  43342.63  24060.67  55.51
945.2  43356.60  24092.21  55.57
946.2  43482.48  24149.31  55.54
947.2  43549.00  24189.13  55.54
948.2  43743.16  24268.82  55.48
949.2  43840.88  24310.00  55.45
950.2  43906.25  24330.85  55.42
951.2  44010.96  24395.95  55.43
952.2  44061.91  24394.58  55.36
953.2  44318.14  24492.05  55.26
954.2  44380.80  24566.22  55.35
955.2  44428.35  24573.86  55.31
956.2  44460.20  24578.35  55.28
957.2  44542.35  24603.13  55.24
958.2  44649.94  24611.28  55.12
959.2  44705.25  24675.30  55.20
960.1  44813.66  24703.96  55.13
961.1  44928.76  24760.43  55.11
962.1  44958.75  24797.38  55.16
963.1  44986.01  24785.48  55.10
964.1  45106.16  24890.88  55.18
965.1  45270.70  24975.62  55.17
966.1  45207.41  24999.81  55.30
967.0  45355.66  25031.25  55.19
968.0  45441.48  25069.73  55.17
969.0  45453.60  25117.89  55.26
970.0  45557.64  25180.31  55.27
971.0  45615.57  25239.71  55.33
971.9  45699.86  25267.58  55.29
972.9  45781.93  25233.33  55.12
973.9  45829.88  25233.39  55.06
974.9  45973.78  25251.91  54.93
975.8  45979.65  25283.13  54.99
976.8  46106.16  25221.90  54.70
977.8  46097.80  25180.17  54.62
978.8  46103.70  25237.86  54.74
979.7  46387.55  25248.52  54.43
980.7  46405.76  25258.73  54.43
981.7  46694.84  25402.46  54.40
982.6  46857.76  25554.12  54.54
983.6  47433.79  25498.12  53.76
984.6  47818.98  25801.32  53.96
985.5  48063.24  26110.47  54.33
986.5  48770.77  26390.49  54.11
987.5  50043.63  26787.70  53.53
988.4  50895.90  27215.61  53.47
989.4  52431.75  27530.83  52.51
990.4  53425.02  28006.78  52.42
991.3  55387.31  28494.64  51.45
992.3  55950.90  28771.02  51.42
993.2  58118.31  29769.74  51.22
994.2  59457.94  30125.36  50.67
995.2  60710.63  30103.52  49.59
996.1  61737.77  30196.49  48.91
997.1  61885.85  30226.35  48.84
998.0  61668.00  30468.56  49.41
999.0  61787.86  30111.04  48.73
1000.0  62252.49  30051.20  48.27
1000.9  62564.91  30482.36  48.72
1001.9  61626.12  30272.48  49.12
1002.8  61885.09  29492.99  47.66
1003.8  61970.58  29326.92  47.32
1004.8  62064.96  29146.19  46.96
961.5  55881.62  27425.18  49.08
965.5  54589.44  27067.26  49.58
969.5  52393.79  26400.97  50.39
973.4  50126.74  25784.62  51.44
977.4  48345.52  25171.96  52.07
981.4  47464.01  24851.17  52.36
985.3  47176.98  24729.23  52.42
989.3  47304.75  24743.97  52.31
993.3  47508.66  24769.26  52.14
997.2  47541.75  24728.84  52.01
1001.2  47520.33  24725.91  52.03
1005.2  47455.76  24754.65  52.16
1009.1  47529.68  24876.10  52.34
1013.1  47663.39  25039.50  52.53
1017.1  47785.75  25168.55  52.67
1021.0  47816.50  25218.42  52.74
1025.0  47819.30  25245.91  52.79
1029.0  47652.00  25194.19  52.87
1032.9  47495.63  25159.38  52.97
1036.9  47497.16  25215.25  53.09
1040.9  47608.97  25340.34  53.23
1044.8  47827.54  25524.33  53.37
1048.8  48004.98  25678.30  53.49
1052.7  48133.54  25798.23  53.60
1056.7  48188.20  25867.61  53.68
1060.7  48194.60  25915.86  53.77
1064.6  48198.22  25964.86  53.87
1068.6  48113.17  25949.80  53.93
1072.5  48026.55  25929.11  53.99
1076.5  47975.49  25923.31  54.03
1080.4  47966.69  25927.16  54.05
1084.4  48069.59  25974.46  54.04
1088.3  48170.15  26035.72  54.05
1092.3  48152.58  26029.52  54.06
1096.2  48142.77  26006.25  54.02
1100.2  48183.64  26014.84  53.99
1104.1  48079.94  25950.50  53.97
1108.1  48035.13  25911.92  53.94
1112.0  47943.86  25817.57  53.85
1116.0  47742.57  25636.37  53.70
1119.9  47581.47  25460.57  53.51
1123.9  47666.30  25395.50  53.28
1127.8  47639.04  25260.80  53.03
1131.8  47617.38  25096.47  52.70
1135.7  47659.94  24903.26  52.25
1139.6  47675.62  24644.03  51.69
1143.6  47638.82  24343.79  51.10
1147.5  47616.88  24047.00  50.50
1151.4  47500.80  23723.19  49.94
1155.4  47513.75  23533.56  49.53
1159.3  47522.52  23404.93  49.25
1163.2  47363.89  23222.94  49.03
1167.2  47347.50  23152.78  48.90
1171.1  47369.57  23105.71  48.78
1175.0  47314.40  23025.18  48.66
1179.0  47268.08  22969.92  48.59
1182.9  47358.68  22968.43  48.50
1186.8  47350.70  22928.98  48.42
1190.7  47139.70  22779.66  48.32
1194.7  46883.87  22614.41  48.23
1198.6  46652.76  22500.56  48.23
1202.5  46480.48  22436.03  48.27
1206.4  46340.80  22410.03  48.36
1210.3  46236.01  22412.29  48.47
1214.2  46114.66  22415.16  48.61
1218.2  45952.68  22410.11  48.77
1222.1  45800.88  22411.92  48.93
1226.0  45686.61  22440.06  49.12
1229.9  45598.02  22472.00  49.28
1233.8  45484.04  22480.58  49.43
1237.7  45416.66  22490.77  49.52
1241.6  45332.53  22488.41  49.61
1245.5  45166.97  22455.09  49.72
1249.4  45023.84  22421.57  49.80
1253.3  44894.25  22394.18  49.88
1257.2  44816.00  22380.53  49.94
1261.1  44716.86  22339.47  49.96
1265.0  44587.73  22294.35  50.00
1268.9  44400.64  22200.32  50.00
1272.8  44460.00  22212.90  49.96
1276.7  44653.74  22294.62  49.93
1280.6  44733.81  22312.66  49.88
1284.5  44649.07  22226.33  49.78
1288.4  44631.63  22156.78  49.64
1292.3  44511.50  22033.92  49.50
1296.2  44360.33  21877.55  49.32
1300.1  44197.71  21697.16  49.09
1303.9  43963.66  21462.04  48.82
1307.8  43715.49  21202.75  48.50
1311.7  43464.03  20924.91  48.14
1315.6  43214.30  20630.46  47.74
1319.5  42962.15  20302.31  47.26
1323.3  42734.84  19962.24  46.71
1327.2  42525.95  19615.96  46.13
1331.1  42285.13  19241.82  45.50
1335.0  41985.32  18830.97  44.85
1338.8  41775.29  18445.68  44.15
1342.7  41609.18  18065.99  43.42
1346.5  41242.98  17582.66  42.63
1350.4  40931.78  17107.35  41.79
1354.3  40517.39  16584.92  40.93
1358.1  40047.65  16081.18  40.16
1362.0  39764.09  15707.57  39.50
1365.8  39670.89  15442.48  38.93
1369.7  39786.92  15231.38  38.28
1373.5  39741.56  14846.14  37.36
1377.4  39487.75  14219.48  36.01
1381.2  39276.49  13471.30  34.30
1385.1  39242.56  12740.69  32.47
1389.0  39129.70  11947.17  30.53
1392.8  38925.66  11046.20  28.38
1396.6  38773.68  10145.69  26.17
1400.5  38560.99  9303.80  24.13
1404.3  38397.74  8578.37  22.34
1408.2  38363.03  7985.29  20.82
1412.0  38325.01  7501.68  19.57
1415.8  38359.09  7140.31  18.61
1419.6  38319.36  6846.94  17.87
1423.5  38299.37  6624.62  17.30
1427.3  38266.05  6462.23  16.89
1431.1  38248.58  6346.48  16.59
1434.9  38159.15  6251.25  16.38
1438.8  38104.90  6197.26  16.26
1442.6  38084.31  6170.05  16.20
1446.4  37958.74  6140.52  16.18
1450.2  37871.04  6135.66  16.20
1454.0  37772.76  6136.24  16.25
1457.8  37752.26  6161.35  16.32
1461.6  37732.17  6201.03  16.43
1465.4  37609.21  6244.29  16.60
1469.2  37426.03  6296.45  16.82
1473.0  37290.43  6385.47  17.12
1476.8  37245.30  6515.08  17.49
1480.7  37186.44  6660.00  17.91
1484.4  37061.40  6805.04  18.36
1488.2  36961.08  6966.16  18.85
1492.0  36836.53  7123.68  19.34
1495.8  36720.78  7280.76  19.83
1499.6  36605.30  7428.02  20.29
1503.4  36479.87  7551.16  20.70
1507.2  36356.05  7656.14  21.06
1510.9  36204.04  7764.70  21.45
1514.7  36047.88  7883.69  21.87
1518.5  35919.58  8017.47  22.32
1522.3  35781.38  8145.41  22.76
1526.0  35674.52  8281.12  23.21
1529.8  35609.17  8432.64  23.68
1533.6  35484.33  8562.57  24.13
1537.3  35352.32  8682.82  24.56
1541.1  35225.58  8800.59  24.98
1544.8  35097.60  8911.20  25.39
1548.6  34949.35  9019.81  25.81
1552.4  34850.72  9124.18  26.18
1556.1  34790.76  9198.17  26.44
1559.9  34705.82  9252.01  26.66
1563.6  34578.39  9316.30  26.94
1567.3  34459.02  9393.50  27.26
1571.1  34243.92  9432.60  27.55
1574.8  34100.68  9492.30  27.84
1578.6  34000.34  9558.37  28.11
1582.3  33854.52  9600.59  28.36
1586.0  33716.51  9635.12  28.58
1589.8  33582.95  9668.91  28.79
1593.5  33431.04  9695.27  29.00
1597.2  33294.67  9724.85  29.21
1600.9  33154.19  9754.58  29.42
1604.7  33000.40  9779.41  29.63
1608.4  32856.34  9809.26  29.86
1612.1  32695.22  9822.66  30.04
1615.8  32545.96  9840.54  30.24
1619.5  32465.11  9872.16  30.41
1623.2  32316.22  9870.84  30.54
1626.9  32130.25  9859.15  30.68
1630.6  31953.68  9844.56  30.81
1634.3  31816.04  9835.62  30.91
1638.0  31668.49  9807.14  30.97
1641.7  31487.82  9764.13  31.01
1645.4  31299.16  9714.05  31.04
1649.1  31105.38  9646.23  31.01
1652.8  30949.76  9576.19  30.94
1656.4  30780.36  9495.16  30.85
1660.1  30613.88  9414.93  30.75
1663.8  30416.03  9333.61  30.69
1667.5  30257.50  9270.47  30.64
1671.1  30134.40  9227.20  30.62
1674.8  29937.06  9169.47  30.63
1678.5  29873.87  9154.81  30.64
1682.1  29892.23  9155.65  30.63
1685.8  29901.92  9142.97  30.58
1689.5  29795.07  9093.61  30.52
1693.1  29653.44  9015.48  30.40
1696.8  29511.75  8929.21  30.26
1700.4  29358.15  8834.84  30.09
1704.0  29237.42  8731.60  29.86
1707.7  28983.16  8584.86  29.62
1711.3  28689.26  8430.53  29.39
1715.0  28479.20  8306.34  29.17
1718.6  28311.14  8196.72  28.95
1722.2  28171.19  8106.13  28.77
1725.9  28024.58  8019.20  28.61
1729.5  27888.80  7935.60  28.45
1733.1  27770.82  7870.32  28.34
1736.7  27655.67  7807.15  28.23
1740.3  27487.42  7722.28  28.09
1744.0  27395.86  7647.24  27.91
1747.5  27255.01  7546.00  27.69
1751.2  27041.09  7428.99  27.47
1754.8  26881.34  7337.06  27.29
1758.4  26750.86  7259.28  27.14
1762.0  26572.85  7172.58  26.99
1765.5  26446.23  7108.07  26.88
1769.1  26402.40  7068.80  26.77
1772.7  26328.38  7016.06  26.65
1776.3  26208.92  6953.97  26.53
1779.9  26081.92  6890.94  26.42
1783.5  26027.60  6846.45  26.30
1787.0  25897.14  6793.95  26.23
1790.6  25747.79  6735.34  26.16
1794.2  25651.68  6696.52  26.11
1797.8  25552.23  6663.90  26.08
1801.3  25471.95  6631.91  26.04
1804.9  25318.13  6586.13  26.01
1808.4  25235.40  6558.62  25.99
1812.0  25102.89  6517.81  25.96
1815.5  24947.72  6464.43  25.91
1819.1  24745.29  6404.92  25.88
1822.6  24588.72  6360.74  25.87
1826.2  24468.62  6315.34  25.81
1829.7  24298.19  6259.17  25.76
1833.2  24066.25  6172.97  25.65
1836.8  23846.10  6098.22  25.57
1840.3  23701.28  6059.73  25.57
1843.8  23605.26  6043.66  25.60
1847.3  23552.23  6044.87  25.67
1850.8  23482.37  6021.12  25.64
1854.3  23328.90  5945.07  25.48
1857.8  23249.20  5824.00  25.05
1861.3  23245.10  5619.15  24.17
1864.8  23154.55  5297.18  22.88
1868.3  22923.75  4869.74  21.24
1871.8  22725.12  4459.52  19.62
1875.3  22663.55  4096.98  18.08
1878.8  22668.35  3753.57  16.56
1882.3  22613.87  3423.02  15.14
1885.8  22446.65  3075.88  13.70
1889.3  22245.45  2758.09  12.40
1892.7  22073.02  2508.63  11.37
1896.2  21956.57  2324.93  10.59
1899.7  21800.31  2235.37  10.25
1903.1  21719.54  2233.62  10.28
1906.6  21807.87  2353.56  10.79
1910.0  22098.88  2619.90  11.86
1913.5  22634.73  3006.83  13.28
1917.0  23151.98  3618.65  15.63
1920.4  23436.08  4191.07  17.88
1923.8  23677.97  4533.31  19.15
1871.2  20787.15  3445.45  16.57
1873.9  20907.54  3296.67  15.77
1876.7  21048.38  3062.07  14.55
1879.5  21252.88  2790.21  13.13
1882.3  20993.42  2502.01  11.92
1885.1  20851.78  2244.07  10.76
1887.8  20921.79  2014.94  9.63
1890.6  20723.54  1772.44  8.55
1893.4  20650.67  1547.33  7.49
1896.2  20581.86  1395.96  6.78
1898.9  20516.13  1284.66  6.26
1901.7  20380.18  1173.71  5.76
1904.5  20546.36  1102.08  5.36
1907.2  20463.00  1046.58  5.11
1910.0  20358.58  1008.78  4.96
1912.7  20364.96  976.81  4.80
1915.5  20273.08  949.62  4.68
1918.2  20210.43  924.40  4.57
1921.0  20079.87  911.16  4.54
1923.7  20126.73  933.80  4.64
1926.5  20096.89  923.81  4.60
1929.2  20080.15  919.24  4.58
1932.0  20066.00  927.99  4.62
1934.7  20016.92  925.49  4.62
1937.4  19925.11  936.70  4.70
1940.2  19881.39  952.73  4.79
1942.9  19959.98  959.18  4.81
1945.6  19965.22  986.53  4.94
1948.3  19894.11  1001.77  5.04
1951.1  19862.99  1006.34  5.07
1953.8  19866.00  1016.00  5.11
1956.5  19752.03  1033.28  5.23
1959.2  19805.76  1073.41  5.42
1961.9  19837.86  1082.73  5.46
1964.6  19745.08  1107.69  5.61
1967.3  19784.70  1148.10  5.80
1970.0  19621.84  1155.39  5.89
1972.8  19538.55  1184.51  6.06
1975.5  19602.81  1220.42  6.23
1978.2  19540.64  1247.81  6.39
1980.9  19419.73  1267.05  6.52
1983.5  19352.05  1287.42  6.65
1986.2  19366.05  1326.96  6.85
1988.9  19348.59  1353.15  6.99
1991.6  19202.00  1382.68  7.20
1994.3  19065.89  1412.39  7.41
1997.0  19096.32  1440.71  7.54
1999.7  19065.00  1465.51  7.69
2002.3  19034.90  1504.50  7.90
2005.0  18965.86  1544.77  8.15
2007.7  18877.00  1566.15  8.30
2010.4  18811.60  1585.48  8.43
2013.0  18774.16  1627.34  8.67
2015.7  18678.28  1654.80  8.86
2018.4  18548.96  1667.96  8.99
2021.0  18504.50  1699.06  9.18
2023.7  18401.60  1720.50  9.35
2026.4  18333.68  1730.37  9.44
2029.0  18267.40  1747.92  9.57
2031.7  18144.97  1775.44  9.78
2034.3  18142.15  1796.09  9.90
2037.0  18035.71  1809.11  10.03
2039.6  17974.39  1825.85  10.16
2042.3  17908.74  1844.14  10.30
2044.9  17825.78  1859.72  10.43
2047.5  17820.17  1872.81  10.51
2050.2  17715.60  1884.40  10.64
2052.8  17679.20  1907.73  10.79
2055.4  17538.43  1909.80  10.89
2058.1  17416.00  1907.73  10.95
2060.7  17404.47  1923.90  11.05
2063.3  17299.63  1934.88  11.18
2065.9  17230.17  1943.93  11.28
2068.6  17165.96  1952.31  11.37
2071.2  17119.44  1966.02  11.48
2073.8  17041.85  1971.89  11.57
2076.4  16999.98  1976.83  11.63
2079.0  17011.74  1985.73  11.67
2081.6  16984.09  2001.22  11.78
2084.2  16930.00  2021.25  11.94
2086.8  16834.24  2006.23  11.92
2089.4  16742.01  2010.25  12.01
2092.1  16637.33  2028.67  12.19
2094.7  16574.28  2022.70  12.20
2097.2  16549.50  2026.78  12.25
2099.8  16541.98  2053.40  12.41
2102.4  16400.35  2051.94  12.51
2105.0  16267.80  2030.15  12.48
2107.6  16238.35  2042.26  12.58
2110.2  16217.39  2061.16  12.71
2112.8  16200.74  2068.28  12.77
2115.3  16182.65  2072.63  12.81
2117.9  16188.40  2085.33  12.88
2120.5  16181.17  2091.03  12.92
2123.1  16113.83  2075.78  12.88
2125.6  16056.05  2085.95  12.99
2128.2  15953.26  2086.71  13.08
2130.8  15859.35  2074.80  13.08
2133.3  15825.33  2089.51  13.20
2135.9  15723.21  2094.47  13.32
2138.4  15584.92  2072.49  13.30
2141.0  15487.96  2059.77  13.30
2143.6  15482.13  2086.37  13.48
2146.1  15358.67  2078.38  13.53
2148.7  15182.57  2061.54  13.58
2151.2  15188.80  2083.65  13.72
2153.8  15199.37  2097.62  13.80
2156.3  15064.95  2093.91  13.90
2158.8  14994.07  2101.79  14.02
2161.4  14983.43  2111.99  14.10
2163.9  14894.98  2109.04  14.16
2166.4  14806.99  2103.18  14.20
2169.0  14777.42  2111.06  14.29
2171.5  14688.72  2117.96  14.42
2174.0  14586.43  2102.34  14.41
2176.5  14576.25  2112.93  14.50
2179.1  14537.32  2121.22  14.59
2181.6  14435.75  2112.94  14.64
2184.1  14405.16  2124.17  14.75
2186.6  14458.30  2142.43  14.82
2189.1  14358.33  2132.51  14.85
2191.6  14308.00  2133.13  14.91
2194.1  14339.64  2135.83  14.89
2196.6  14340.73  2141.03  14.93
2199.2  14399.84  2167.42  15.05
2201.7  14323.09  2157.36  15.06
2204.1  14264.18  2155.02  15.11
2206.6  14278.44  2182.05  15.28
2209.1  14246.74  2178.90  15.29
2211.6  14236.93  2171.07  15.25
2214.1  14172.61  2180.89  15.39
2216.6  14103.21  2197.97  15.58
2219.1  14137.40  2191.64  15.50
2221.6  14080.86  2164.72  15.37
2224.0  14024.61  2165.35  15.44
2226.5  13983.38  2161.24  15.46
2229.0  13981.89  2148.23  15.36
2231.5  13918.22  2102.67  15.11
2233.9  13896.33  2085.80  15.01
2236.4  13868.98  2102.41  15.16
2238.9  13826.00  2074.42  15.00
2241.3  13828.76  2040.50  14.76
2243.8  13758.80  2031.43  14.76
2246.2  13610.98  1991.31  14.63
2248.7  13571.61  1966.90  14.49
2251.2  13563.12  1954.98  14.41
2253.6  13482.24  1918.72  14.23
2256.1  13474.56  1884.16  13.98
2258.5  13495.78  1882.42  13.95
2260.9  13407.16  1854.86  13.83
2263.4  13372.75  1827.05  13.66
2265.8  13367.17  1814.34  13.57
2268.3  13288.30  1788.19  13.46
2270.7  13342.05  1770.75  13.27
2273.1  13272.94  1734.70  13.07
2275.6  13194.24  1724.16  13.07
2278.0  13232.60  1702.60  12.87
2280.4  13249.81  1663.76  12.56
2282.8  13117.21  1637.72  12.49
2285.3  13103.68  1625.32  12.40
2287.7  13191.09  1627.08  12.33
2290.1  13097.39  1577.38  12.04
2292.5  13047.88  1530.45  11.73
2294.9  13056.31  1541.15  11.80
2297.3  12972.40  1520.04  11.72
2299.7  12875.52  1474.05  11.45
2302.1  12826.01  1460.03  11.38
2304.5  12696.88  1449.09  11.41
2306.9  12602.80  1411.20  11.20
2309.3  12519.08  1401.46  11.19
2311.7  12473.65  1409.08  11.30
2314.1  12315.17  1378.42  11.19
2316.5  12229.76  1368.49  11.19
2318.9  12290.12  1375.64  11.19
2321.3  12265.32  1361.49  11.10
2323.7  12235.57  1356.40  11.09
2326.1  12214.93  1336.62  10.94
2328.4  12270.09  1330.35  10.84
2330.8  12319.08  1321.07  10.72
2333.2  12235.57  1279.43  10.46
2335.6  12168.54  1269.03  10.43
2337.9  12202.83  1281.21  10.50
2340.3  12141.58  1262.30  10.40
2342.7  12039.09  1225.77  10.18
2345.0  12013.82  1206.05  10.04
2347.4  11993.50  1184.33  9.87
2349.7  11798.34  1159.05  9.82
2352.1  11775.76  1170.72  9.94
2354.4  11820.42  1166.28  9.87
2356.8  11728.38  1143.92  9.75
2359.2  11704.33  1128.11  9.64
2361.5  11645.74  1105.38  9.49
2363.8  11633.53  1102.31  9.48
2366.2  11660.03  1098.92  9.42
2368.5  11627.85  1082.83  9.31
2370.9  11603.83  1064.65  9.18
2373.2  11533.95  1050.72  9.11
2375.5  11398.48  1043.77  9.16
2377.9  11373.04  1030.18  9.06
2380.2  11408.35  1012.55  8.88
2382.5  11308.30  986.40  8.72
2384.8  11261.28  955.84  8.49
2387.2  11252.00  953.30  8.47
2389.5  11242.29  950.63  8.46
2391.8  11232.13  936.41  8.34
2394.1  11132.13  942.07  8.46
2396.4  11089.46  927.35  8.36
2398.7  11160.99  902.88  8.09
2401.0  11096.58  886.81  7.99
2403.3  10926.12  858.22  7.85
2405.6  10921.36  853.05  7.81
2407.9  10891.74  855.04  7.85
2410.2  10793.71  830.54  7.69
2412.5  10752.81  801.21  7.45
2414.8  10737.29  794.22  7.40
2417.1  10694.97  798.34  7.46
2419.4  10638.82  786.71  7.39
2421.7  10597.44  762.22  7.19
2424.0  10571.95  753.76  7.13
2426.2  10576.95  736.52  6.96
2428.5  10508.39  719.31  6.85
2430.8  10485.80  719.40  6.86
2433.1  10443.79  696.99  6.67
2435.4  10361.94  684.46  6.61
2437.6  10328.37  680.73  6.59
2439.9  10224.92  658.83  6.44
2442.2  10193.49  650.37  6.38
2444.4  10223.13  637.51  6.24
2446.7  10173.28  609.31  5.99
2448.9  10197.11  611.91  6.00
2451.2  10173.72  597.99  5.88
2453.4  10028.37  564.50  5.63
2455.7  9998.26  571.68  5.72
2457.9  9908.42  557.59  5.63
2460.2  9870.17  558.96  5.66
2462.4  9896.64  572.00  5.78
2464.7  9834.69  544.62  5.54
2466.9  9751.98  530.72  5.44
2469.2  9722.50  531.50  5.47
2471.4  9624.29  542.71  5.64
2473.6  9553.77  506.59  5.30
2475.9  9536.85  494.45  5.18
2478.1  9427.70  487.33  5.17
2480.3  9377.37  473.40  5.05
2482.5  9321.43  481.32  5.16
2484.8  9240.44  473.31  5.12
2487.0  9258.33  469.09  5.07
2489.2  9302.30  454.81  4.89
2491.4  9183.58  414.99  4.52
2493.6  9147.34  418.05  4.57
2495.8  9177.35  438.15  4.77
2498.0  9103.79  410.74  4.51
2500.2  9132.70  393.17  4.31
2502.4  9403.92  464.72  4.94
2504.6  9512.07  513.32  5.40
2506.8  9585.80  467.60  4.88
