/*** Spectra Vista SIG Data ***/
name= RB.sig
comm= Resampled spectral data SIG file reprocesed for matching/overlap;Averaged Ref/Tar of files: RD2B1,RD2B2,RD2B3
data=
346.0  509.60  90.45  17.75
356.0  828.71  99.67  12.03
366.0  1135.02  107.25  9.45
376.0  1579.37  110.33  6.99
386.0  1995.77  107.12  5.37
396.0  2559.82  134.95  5.27
406.0  3091.33  126.78  4.10
416.0  3756.05  154.13  4.10
426.0  4330.84  163.97  3.79
436.0  5235.06  187.19  3.58
446.0  6088.18  222.59  3.66
456.0  6942.22  249.89  3.60
466.0  8223.74  303.67  3.69
476.0  9370.48  346.44  3.70
486.0  10269.91  365.75  3.56
496.0  11746.45  442.67  3.77
506.0  13053.58  532.51  4.08
516.0  13946.28  598.56  4.29
526.0  15576.79  695.79  4.47
536.0  17486.02  813.12  4.65
546.0  19041.40  933.03  4.90
556.0  19524.52  989.93  5.07
566.0  20999.31  1154.61  5.50
576.0  23067.50  1436.33  6.23
586.0  24676.47  1805.26  7.32
596.0  26082.33  2242.15  8.60
606.0  26687.61  2632.74  9.87
616.0  28173.19  3093.05  10.98
626.0  30688.38  3850.72  12.55
636.0  30262.72  4112.53  13.59
646.0  30879.36  3617.54  11.72
656.0  30774.24  3403.06  11.06
666.0  32506.69  2961.10  9.11
676.0  34219.05  2906.34  8.49
686.0  36429.62  4413.37  12.11
696.0  37023.78  8762.80  23.67
706.0  37160.43  12852.99  34.59
716.0  36697.84  15161.93  41.32
726.0  35913.80  16242.50  45.23
736.0  35729.66  16700.84  46.74
746.0  37736.85  18085.24  47.92
756.0  38321.00  18823.73  49.12
766.0  39510.69  19712.61  49.89
776.0  40059.59  20294.24  50.66
786.0  40131.74  20490.78  51.06
796.0  39280.82  20239.67  51.53
806.0  38244.14  19787.16  51.74
816.0  38036.29  19775.56  51.99
826.0  37709.30  19686.54  52.21
836.0  38038.49  19779.09  52.00
846.0  38692.27  20314.28  52.50
856.0  39178.52  20775.66  53.03
866.0  39402.80  20896.82  53.03
876.0  39579.78  20851.52  52.68
886.0  39738.64  20719.15  52.14
896.0  39527.49  20218.03  51.15
906.0  39437.50  19891.70  50.44
916.0  39115.31  19355.19  49.48
926.0  39024.38  18690.27  47.89
936.0  39929.50  18239.72  45.68
946.0  40662.60  17628.59  43.35
956.0  41393.84  16742.59  40.45
966.0  41958.59  16442.28  39.19
976.0  42665.70  16653.78  39.03
986.0  43514.08  17302.69  39.76
996.0  44198.08  17281.96  39.10
1006.0  44152.39  17606.91  39.88
1016.0  44379.04  18331.01  41.31
1026.0  44401.68  18919.65  42.61
1036.0  44210.66  19454.75  44.00
1046.0  44505.96  20190.38  45.37
1056.0  44664.21  20714.71  46.38
1066.0  44609.35  20973.60  47.02
1076.0  44397.60  20945.71  47.18
1086.0  44469.15  20840.12  46.86
1096.0  44486.78  20497.53  46.08
1106.0  44367.02  20050.17  45.19
1116.0  44078.91  19436.43  44.09
1126.0  43954.95  18534.43  42.17
1136.0  43902.29  16907.52  38.51
1146.0  43783.94  15069.72  34.42
1156.0  43564.50  13948.97  32.02
1166.0  43347.15  13503.20  31.15
1176.0  43236.47  13272.89  30.70
1186.0  43266.58  13132.05  30.35
1196.0  42749.21  12872.89  30.11
1206.0  42347.95  12793.12  30.21
1216.0  42062.65  12860.03  30.57
1226.0  41760.57  12986.80  31.10
1236.0  41549.33  13106.65  31.54
1246.0  41291.98  13155.53  31.86
1256.0  41002.94  13182.39  32.15
1266.0  40714.26  13138.35  32.27
1276.0  40752.77  13098.61  32.14
1286.0  40729.17  12954.12  31.81
1296.0  40419.20  12591.66  31.15
1306.0  39889.01  11986.13  30.05
1316.0  39301.71  11237.21  28.59
1326.0  38739.73  10403.56  26.86
1336.0  38152.03  9569.77  25.08
1346.0  37634.91  8811.09  23.41
1356.0  36932.28  8079.30  21.88
1366.0  36373.67  7484.43  20.58
1376.0  36238.22  6717.35  18.54
1386.0  35907.93  5563.44  15.49
1396.0  35482.45  4379.80  12.34
1406.0  35048.23  3550.18  10.13
1416.0  34958.68  3106.20  8.89
1426.0  34812.11  2879.69  8.27
1436.0  34651.53  2768.72  7.99
1446.0  34455.26  2721.81  7.90
1456.0  34203.50  2703.86  7.91
1466.0  34017.99  2739.29  8.05
1476.0  33677.47  2821.70  8.38
1486.0  33445.44  2987.00  8.93
1496.0  33136.51  3176.76  9.59
1506.0  32878.23  3282.10  9.98
1516.0  32532.33  3385.49  10.41
1526.0  32200.64  3527.06  10.95
1536.0  31935.91  3657.18  11.45
1546.0  31612.44  3829.61  12.11
1556.0  31368.42  3968.94  12.65
1566.0  31082.67  4084.84  13.14
1576.0  30694.72  4200.51  13.68
1586.0  30400.45  4300.82  14.15
1596.0  30038.76  4363.94  14.53
1606.0  29713.74  4427.02  14.90
1616.0  29361.62  4481.68  15.26
1626.0  29041.80  4537.17  15.62
1636.0  28665.08  4560.43  15.91
1646.0  28273.39  4553.44  16.11
1656.0  27876.35  4514.32  16.19
1666.0  27464.92  4462.82  16.25
1676.0  27087.15  4393.16  16.22
1686.0  27082.21  4326.92  15.98
1696.0  26749.12  4216.41  15.76
1706.0  26324.28  4061.63  15.43
1716.0  25713.57  3865.05  15.03
1726.0  25342.79  3701.88  14.61
1736.0  25046.96  3606.36  14.40
1746.0  24724.28  3502.68  14.17
1756.0  24256.84  3342.25  13.78
1766.0  23870.66  3219.12  13.49
1776.0  23641.10  3157.17  13.35
1786.0  23371.07  3095.04  13.24
1796.0  23059.77  3043.71  13.20
1806.0  22801.89  3013.80  13.22
1816.0  22515.30  2971.97  13.20
1826.0  22114.90  2920.39  13.21
1836.0  21613.42  2831.48  13.10
1846.0  21215.40  2742.90  12.93
1856.0  20774.86  2608.76  12.56
1866.0  20736.29  2316.49  11.17
1876.0  20407.50  1892.45  9.27
1886.0  20155.03  1535.82  7.62
1896.0  19660.33  1301.63  6.62
1906.0  18631.25  769.48  4.13
1916.0  18318.88  732.33  4.00
1926.0  18038.46  716.17  3.97
1936.0  17863.51  707.78  3.96
1946.0  17797.41  711.44  4.00
1956.0  17592.99  727.53  4.14
1966.0  17571.94  763.68  4.35
1976.0  17404.06  786.84  4.52
1986.0  17183.68  802.77  4.67
1996.0  16906.31  825.76  4.88
2006.0  16756.31  858.91  5.13
2016.0  16485.40  889.48  5.40
2026.0  16206.02  884.52  5.46
2036.0  15962.47  898.67  5.63
2046.0  15735.40  910.51  5.79
2056.0  15460.05  917.27  5.93
2066.0  15198.46  904.88  5.95
2076.0  14951.14  933.40  6.24
2086.0  14836.37  934.85  6.30
2096.0  14558.23  958.61  6.58
2106.0  14302.47  961.03  6.72
2116.0  14222.98  977.06  6.87
2126.0  14069.19  991.79  7.05
2136.0  13798.40  988.51  7.16
2146.0  13445.76  1002.55  7.46
2156.0  13239.56  995.10  7.52
2166.0  12983.56  990.35  7.63
2176.0  12771.15  1004.83  7.87
2186.0  12627.18  994.00  7.87
2196.0  12513.18  991.09  7.92
2206.0  12456.23  1004.42  8.06
2216.0  12351.60  1006.42  8.15
2226.0  12205.08  969.26  7.94
2236.0  12132.89  954.77  7.87
2246.0  11882.62  906.70  7.63
2256.0  11773.90  845.83  7.18
2266.0  11670.88  798.64  6.84
2276.0  11528.71  778.35  6.75
2286.0  11463.55  737.52  6.43
2296.0  11358.16  700.71  6.17
2306.0  11039.70  653.50  5.92
2316.0  10655.77  624.27  5.86
2326.0  10608.43  623.80  5.88
2336.0  10592.93  619.16  5.85
2346.0  10498.36  582.93  5.55
2356.0  10259.04  549.33  5.35
2366.0  10158.26  545.93  5.37
2376.0  9929.58  526.22  5.30
2386.0  9815.44  492.11  5.01
2396.0  9663.63  472.26  4.89
2406.0  9510.88  459.89  4.84
2416.0  9304.41  440.94  4.74
2426.0  9217.28  404.81  4.39
2436.0  8983.54  410.81  4.57
2446.0  8817.11  396.48  4.50
2456.0  8689.94  372.73  4.29
2466.0  8452.21  323.32  3.83
2476.0  8254.64  308.11  3.73
2486.0  8114.28  296.82  3.66
2496.0  7981.99  302.48  3.79
2506.0  8320.96  311.69  3.75
