/*** Spectra Vista SIG Data ***/
name= AODB.sig
comm= Averaged Ref/Tar of files: AODB4,AODB5,AODB6
data=
346.4  509.60  125.70  24.67
347.9  536.51  128.43  23.94
349.5  577.20  128.13  22.20
351.1  620.88  127.71  20.57
352.6  679.94  135.36  19.91
354.2  723.22  138.75  19.19
355.7  777.89  151.31  19.45
357.3  842.60  151.65  18.00
358.8  838.80  157.04  18.72
360.4  904.00  164.15  18.16
361.9  943.76  162.52  17.22
363.5  997.20  162.51  16.30
365.1  1040.25  160.89  15.47
366.6  1087.54  164.34  15.11
368.2  1161.70  169.22  14.57
369.7  1204.79  165.86  13.77
371.3  1287.37  168.14  13.06
372.8  1354.56  171.31  12.65
374.4  1435.13  178.45  12.43
375.9  1463.02  181.83  12.43
377.4  1512.41  180.84  11.96
379.0  1578.52  185.86  11.77
380.5  1618.77  176.03  10.87
382.1  1669.58  177.30  10.62
383.6  1726.52  175.77  10.18
385.2  1809.50  176.37  9.75
386.7  1900.67  180.50  9.50
388.3  1991.93  185.52  9.31
389.8  2077.97  186.29  8.97
391.3  2163.95  197.55  9.13
392.9  2236.17  199.53  8.92
394.4  2293.88  202.98  8.85
395.9  2364.42  216.45  9.15
397.5  2493.56  228.25  9.15
399.0  2617.23  236.07  9.02
400.6  2691.33  223.38  8.30
402.1  2739.96  218.44  7.97
403.6  2797.88  213.86  7.64
405.1  2865.39  212.35  7.41
406.7  2979.20  218.33  7.33
408.2  3089.54  223.05  7.22
409.7  3183.04  231.17  7.26
411.3  3295.62  239.60  7.27
412.8  3391.47  249.64  7.36
414.3  3507.27  263.35  7.51
415.8  3622.50  272.33  7.52
417.4  3739.34  275.26  7.36
418.9  3830.42  287.75  7.51
420.4  3913.23  290.46  7.42
421.9  3978.48  291.69  7.33
423.5  4044.22  295.76  7.31
425.0  4110.68  303.56  7.38
426.5  4198.95  305.30  7.27
428.0  4314.36  307.33  7.12
429.5  4445.73  317.05  7.13
431.1  4599.50  326.11  7.09
432.6  4769.72  336.56  7.06
434.1  4937.63  349.58  7.08
435.6  5085.18  360.42  7.09
437.1  5233.80  369.46  7.06
438.6  5364.45  379.64  7.08
440.1  5501.44  393.06  7.14
441.6  5653.06  403.44  7.14
443.1  5799.60  413.37  7.13
444.7  5941.01  424.43  7.14
446.2  6051.88  435.32  7.19
447.7  6161.82  448.19  7.27
449.2  6292.08  456.77  7.26
450.7  6396.00  460.37  7.20
452.2  6529.70  464.26  7.11
453.7  6647.26  472.08  7.10
455.2  6815.62  482.97  7.09
456.7  7013.60  497.26  7.09
458.2  7232.90  510.74  7.06
459.7  7456.75  530.37  7.11
461.2  7667.16  546.68  7.13
462.7  7858.10  561.58  7.15
464.2  8041.02  577.31  7.18
465.7  8240.35  597.29  7.25
467.2  8402.63  615.49  7.32
468.7  8584.00  636.53  7.42
470.2  8698.25  649.48  7.47
471.7  8877.75  674.50  7.60
473.2  9159.71  700.77  7.65
474.6  9386.40  709.00  7.55
476.1  9450.96  706.67  7.48
477.6  9499.75  709.66  7.47
479.1  9557.87  717.37  7.51
480.6  9632.82  718.69  7.46
482.1  9760.73  733.91  7.52
483.6  9935.74  749.52  7.54
485.1  10133.78  769.86  7.60
486.6  10366.07  790.36  7.62
488.0  10621.00  816.40  7.69
489.5  10873.80  842.82  7.75
491.0  11134.31  872.69  7.84
492.5  11404.80  904.61  7.93
494.0  11683.71  939.80  8.04
495.4  11917.95  973.50  8.17
496.9  12154.26  1010.46  8.31
498.4  12387.41  1047.32  8.45
499.9  12623.63  1087.52  8.61
501.4  12839.71  1124.94  8.76
502.8  13042.06  1166.07  8.94
504.3  13226.40  1202.40  9.09
505.8  13406.54  1244.16  9.28
507.2  13518.16  1281.92  9.48
508.7  13603.31  1318.43  9.69
510.2  13672.60  1348.87  9.87
511.6  13715.26  1380.83  10.07
513.1  13806.21  1415.96  10.26
514.6  13898.29  1453.32  10.46
516.0  13992.63  1489.70  10.65
517.5  14151.40  1532.09  10.83
519.0  14339.95  1579.76  11.02
520.5  14520.56  1629.07  11.22
521.9  14760.83  1688.83  11.44
523.4  15031.28  1753.65  11.67
524.8  15295.25  1818.10  11.89
526.3  15594.01  1891.67  12.13
527.8  15909.50  1966.20  12.36
529.2  16189.50  2045.73  12.64
530.7  16509.28  2127.01  12.88
532.1  16791.25  2204.70  13.13
533.6  17121.20  2297.97  13.42
535.0  17454.94  2389.93  13.69
536.5  17789.22  2486.37  13.98
538.0  18136.88  2585.32  14.25
539.4  18461.69  2687.82  14.56
540.9  18864.39  2805.82  14.87
542.3  19206.33  2919.82  15.20
543.8  19460.81  3017.64  15.51
545.2  19544.37  3090.80  15.81
546.6  19566.05  3153.90  16.12
548.1  19604.97  3227.78  16.46
549.5  19640.65  3295.35  16.78
551.0  19664.79  3362.70  17.10
552.4  19724.92  3441.37  17.45
553.9  19761.60  3511.26  17.77
555.3  19812.20  3588.16  18.11
556.8  19934.49  3675.59  18.44
558.2  20047.50  3763.35  18.77
559.6  20200.16  3857.60  19.10
561.1  20397.00  3964.78  19.44
562.5  20617.77  4073.55  19.76
564.0  20901.40  4199.20  20.09
565.4  21161.13  4322.28  20.43
566.8  21482.31  4458.59  20.75
568.3  21793.28  4595.27  21.09
569.7  22118.60  4737.59  21.42
571.1  22425.71  4879.62  21.76
572.6  22741.56  5022.00  22.08
574.0  23030.70  5168.46  22.44
575.4  23309.44  5313.60  22.80
576.9  23581.06  5453.68  23.13
578.3  23822.01  5595.59  23.49
579.7  24048.22  5738.13  23.86
581.1  24227.75  5862.69  24.20
582.6  24429.78  5997.12  24.55
584.0  24600.48  6127.36  24.91
585.4  24853.74  6278.78  25.26
586.8  25196.68  6459.96  25.64
588.3  25573.86  6649.03  26.00
589.7  25896.78  6826.25  26.36
591.1  26104.75  6982.50  26.75
592.5  26211.06  7106.66  27.11
594.0  26269.26  7219.44  27.48
595.4  26286.44  7316.37  27.83
596.8  26295.56  7414.26  28.20
598.2  26315.92  7508.78  28.53
599.6  26317.98  7602.97  28.89
601.0  26398.05  7717.21  29.23
602.4  26470.93  7823.63  29.56
603.9  26597.64  7943.56  29.87
605.3  26727.57  8073.44  30.21
606.7  26857.80  8195.76  30.52
608.1  27088.39  8340.73  30.79
609.5  27333.21  8499.03  31.09
610.9  27623.29  8668.92  31.38
612.3  27891.32  8829.65  31.66
613.7  28252.28  9036.18  31.98
615.1  28513.62  9210.67  32.30
616.5  28776.05  9379.62  32.60
617.9  29165.50  9590.21  32.88
619.3  29543.24  9788.15  33.13
620.7  29990.55  10008.69  33.37
622.1  30437.05  10261.39  33.71
623.5  30934.60  10562.80  34.15
624.9  31494.75  10875.55  34.53
626.3  31867.36  11108.05  34.86
627.7  31569.69  11086.00  35.12
629.1  31287.59  11068.79  35.38
630.5  31184.65  11092.84  35.57
631.9  31222.21  11169.94  35.78
633.3  31256.33  11252.65  36.00
634.7  31400.48  11370.96  36.21
636.1  31461.82  11456.10  36.41
637.5  31554.77  11553.30  36.61
638.9  31702.82  11636.62  36.71
640.2  31825.04  11721.79  36.83
641.6  31863.78  11786.42  36.99
643.0  31847.61  11899.69  37.36
644.4  31829.55  11985.86  37.66
645.8  31751.71  11955.20  37.65
647.2  31867.94  11995.64  37.64
648.5  31926.34  12006.40  37.61
649.9  31776.23  11937.15  37.57
651.3  31648.05  11872.12  37.51
652.7  31449.15  11781.00  37.46
654.1  31244.46  11771.26  37.67
655.5  31005.95  11802.34  38.06
656.8  30780.41  11826.22  38.42
658.2  30925.42  11980.77  38.74
659.6  31264.45  12183.38  38.97
660.9  31536.04  12350.70  39.16
662.3  31822.64  12515.68  39.33
663.7  32096.40  12680.08  39.51
665.0  32332.90  12824.04  39.66
666.4  32562.99  12960.77  39.80
667.8  32863.56  13128.16  39.95
669.1  33114.69  13275.05  40.09
670.5  33405.09  13441.83  40.24
671.9  33586.56  13564.64  40.39
673.2  33844.75  13723.31  40.55
674.6  34082.18  13880.84  40.73
676.0  34372.41  14056.80  40.90
677.3  34659.68  14226.73  41.05
678.7  34979.63  14427.33  41.24
680.0  35399.92  14668.88  41.44
681.4  35845.89  14926.14  41.64
682.8  36270.33  15185.17  41.87
684.1  36705.24  15452.74  42.10
685.5  37104.21  15701.46  42.32
686.8  37507.62  15951.30  42.53
688.2  37862.83  16201.85  42.79
689.5  38000.96  16357.64  43.05
690.9  38124.79  16497.10  43.27
692.2  38229.60  16624.64  43.49
693.6  38334.37  16738.33  43.66
694.9  38335.34  16799.32  43.82
696.2  38393.33  16893.27  44.00
697.6  38453.39  16997.97  44.20
698.9  38522.88  17092.06  44.37
700.3  38613.54  17181.63  44.50
701.6  38716.02  17289.16  44.66
703.0  38828.83  17399.47  44.81
704.3  38882.19  17490.68  44.98
705.6  38895.39  17565.10  45.16
707.0  38949.12  17656.33  45.33
708.3  38885.46  17695.14  45.51
709.6  38817.35  17717.71  45.64
711.0  38702.88  17742.67  45.84
712.3  38573.15  17742.95  46.00
713.6  38531.64  17789.35  46.17
714.9  38462.14  17814.50  46.32
716.3  38461.08  17886.76  46.51
717.6  38479.84  17952.84  46.66
718.9  38424.85  17987.11  46.81
720.2  38251.08  17975.72  46.99
721.6  38113.53  17980.27  47.18
722.9  37945.16  17966.79  47.35
724.2  37714.27  17899.65  47.46
725.5  37534.96  17874.61  47.62
726.8  37360.68  17858.34  47.80
728.1  37271.09  17881.25  47.98
729.5  37167.13  17905.40  48.18
730.8  37093.13  17923.33  48.32
732.1  36996.92  17926.83  48.45
733.4  36936.39  17944.81  48.58
734.7  36864.47  17970.60  48.75
736.0  36851.62  18020.02  48.90
737.3  36774.45  18033.65  49.04
738.6  36845.76  18127.03  49.20
739.9  37000.34  18241.87  49.30
741.2  37119.81  18347.06  49.43
742.5  37372.03  18518.00  49.55
743.8  37768.50  18766.44  49.69
745.1  38387.22  19132.30  49.84
746.4  39127.73  19575.01  50.03
747.7  39918.22  20040.80  50.20
749.0  40672.12  20505.42  50.42
750.3  41122.66  20819.74  50.63
751.6  41047.35  20863.73  50.83
752.9  40630.59  20703.61  50.96
754.2  40176.47  20521.69  51.08
755.4  39652.21  20298.02  51.19
756.7  39478.17  20245.85  51.28
758.0  39495.60  20288.22  51.37
759.3  39730.28  20469.72  51.52
760.6  40061.56  20683.64  51.63
761.9  40384.10  20894.32  51.74
763.1  40567.56  21052.95  51.90
764.4  40796.65  21227.88  52.03
765.7  40953.25  21367.23  52.17
767.0  41079.80  21492.23  52.32
768.2  41207.04  21598.53  52.41
769.5  41279.98  21692.92  52.55
770.8  41469.61  21843.63  52.67
772.0  41501.32  21926.06  52.83
773.3  41583.65  22031.24  52.98
774.6  41708.58  22138.32  53.08
775.8  41815.15  22262.54  53.24
777.1  41846.51  22330.82  53.36
778.4  41799.94  22360.34  53.49
779.6  41775.90  22418.82  53.66
780.9  41704.00  22426.13  53.77
782.1  41523.21  22383.00  53.90
783.4  41558.40  22447.91  54.02
784.6  41567.36  22506.52  54.14
785.9  41861.56  22695.46  54.22
787.1  42409.87  23074.91  54.41
788.4  42854.47  23466.07  54.76
789.6  42849.18  23581.99  55.03
790.9  42483.96  23422.34  55.13
792.1  42011.92  23226.85  55.29
793.4  41570.15  23045.53  55.44
794.6  41283.15  22957.17  55.61
795.8  41024.39  22857.35  55.72
797.1  40758.68  22762.15  55.85
798.3  40551.64  22708.07  56.00
799.5  40444.72  22708.98  56.15
800.8  40323.21  22688.09  56.27
802.0  40187.32  22679.55  56.43
803.2  40033.64  22660.27  56.60
804.5  39942.72  22664.96  56.74
805.7  39829.66  22669.18  56.92
806.9  39715.93  22653.96  57.04
808.1  39632.97  22656.04  57.16
809.4  39553.39  22682.06  57.35
810.6  39489.45  22683.27  57.44
811.8  39474.39  22716.18  57.55
813.0  39504.71  22784.40  57.68
814.2  39525.61  22856.05  57.83
815.4  39644.33  22994.90  58.00
816.6  39709.73  23081.10  58.12
817.9  39791.57  23189.76  58.28
819.1  39719.87  23226.48  58.48
820.3  39621.11  23213.33  58.59
821.5  39546.25  23209.77  58.69
822.7  39480.04  23224.57  58.83
823.9  39499.25  23279.34  58.94
825.1  39541.96  23345.29  59.04
826.3  39583.35  23419.31  59.16
827.5  39640.56  23492.99  59.27
828.7  39708.48  23587.97  59.40
829.9  39767.03  23670.31  59.52
831.0  39870.82  23760.44  59.59
832.2  39993.87  23860.11  59.66
833.4  40076.64  23961.00  59.79
834.6  40148.44  24052.50  59.91
835.8  40238.10  24149.16  60.02
837.0  40328.28  24250.68  60.13
838.1  40500.72  24384.26  60.21
839.3  40601.19  24472.07  60.27
840.5  40716.87  24579.01  60.37
841.7  40854.11  24707.93  60.48
842.9  40980.73  24814.67  60.55
844.0  41100.82  24930.95  60.66
845.2  41245.09  25046.73  60.73
846.4  41368.25  25186.99  60.88
847.5  41564.18  25345.87  60.98
848.7  41743.64  25518.43  61.13
849.9  41936.76  25693.57  61.27
851.0  42020.98  25807.65  61.42
852.2  42107.61  25905.79  61.52
853.3  42066.96  25957.63  61.71
854.5  42098.11  26012.10  61.79
855.6  42095.43  26048.80  61.88
856.8  42111.00  26084.63  61.94
857.9  42111.88  26134.26  62.06
859.1  42240.60  26253.28  62.15
860.2  42245.56  26299.80  62.25
861.4  42273.83  26371.64  62.38
862.5  42309.54  26420.65  62.45
863.7  42384.63  26525.03  62.58
864.8  42387.10  26564.53  62.67
865.9  42333.82  26571.66  62.77
867.1  42372.33  26630.39  62.85
868.2  42368.54  26662.37  62.93
869.3  42393.50  26736.57  63.07
870.5  42342.80  26725.56  63.12
871.6  42318.48  26752.11  63.22
872.7  42385.23  26828.51  63.30
873.9  42404.90  26875.13  63.38
875.0  42391.36  26878.97  63.41
876.1  42363.75  26930.00  63.57
877.2  42397.32  26966.77  63.60
878.3  42381.77  26992.85  63.69
879.4  42397.70  27059.42  63.82
880.5  42451.56  27119.76  63.88
881.7  42410.55  27130.13  63.97
882.8  42454.72  27209.61  64.09
883.9  42482.63  27286.03  64.23
885.0  42446.04  27288.26  64.29
886.1  42420.10  27337.59  64.44
887.2  42295.80  27301.59  64.55
888.3  42201.80  27295.23  64.68
889.4  42117.30  27264.82  64.74
890.5  42026.34  27244.33  64.83
891.6  41981.69  27225.09  64.85
892.7  41962.31  27258.31  64.96
893.8  41981.79  27288.92  65.00
894.9  41952.35  27307.22  65.09
896.0  41968.71  27337.94  65.14
897.0  41952.48  27373.75  65.25
898.1  41951.64  27406.80  65.33
899.2  41983.30  27439.68  65.36
900.3  41907.57  27415.04  65.42
901.4  41820.39  27396.32  65.51
902.4  41828.99  27431.43  65.58
903.5  41775.96  27409.49  65.61
904.6  41798.96  27439.52  65.65
905.7  41805.42  27473.69  65.72
906.7  41815.90  27488.01  65.74
907.8  41839.20  27555.76  65.86
908.9  41746.38  27526.44  65.94
909.9  41734.69  27551.08  66.01
911.0  41681.88  27525.08  66.04
912.1  41602.05  27503.90  66.11
913.1  41535.52  27496.70  66.20
914.2  41457.24  27421.08  66.14
915.2  41368.59  27449.86  66.35
916.3  41436.15  27478.04  66.31
917.3  41410.15  27477.45  66.35
918.4  41310.50  27456.22  66.46
919.4  41328.17  27466.04  66.46
920.5  41309.67  27472.29  66.50
921.5  41323.66  27526.86  66.61
922.6  41255.80  27495.44  66.65
923.6  41303.54  27559.82  66.73
924.7  41344.50  27583.07  66.72
925.7  41333.16  27603.22  66.78
926.7  41356.90  27648.79  66.85
927.8  41415.30  27722.50  66.94
928.8  41570.85  27809.39  66.90
929.9  41658.93  27909.78  67.00
930.9  41879.39  28036.81  66.95
931.9  42070.56  28154.68  66.92
932.9  42412.10  28369.34  66.89
934.0  42452.50  28421.97  66.95
935.0  42440.57  28441.38  67.01
936.0  42488.02  28428.00  66.91
937.0  42429.47  28446.49  67.04
938.1  42380.86  28437.06  67.10
939.1  42337.65  28417.38  67.12
940.1  42429.30  28475.59  67.11
941.1  42615.86  28625.46  67.17
942.1  42903.92  28780.91  67.08
943.1  43057.09  28865.37  67.04
944.1  43342.63  29035.66  66.99
945.2  43356.60  29100.57  67.12
946.2  43482.48  29188.85  67.13
947.2  43549.00  29216.35  67.09
948.2  43743.16  29321.65  67.03
949.2  43840.88  29365.38  66.98
950.2  43906.25  29430.07  67.03
951.2  44010.96  29468.21  66.96
952.2  44061.91  29572.18  67.12
953.2  44318.14  29651.90  66.91
954.2  44380.80  29719.86  66.97
955.2  44428.35  29758.19  66.98
956.2  44460.20  29740.33  66.89
957.2  44542.35  29794.95  66.89
958.2  44649.94  29831.86  66.81
959.2  44705.25  29896.74  66.88
960.1  44813.66  29932.51  66.79
961.1  44928.76  29982.68  66.73
962.1  44958.75  30031.88  66.80
963.1  44986.01  30063.64  66.83
964.1  45106.16  30157.94  66.86
965.1  45270.70  30264.87  66.85
966.1  45207.41  30248.44  66.91
967.0  45355.66  30371.97  66.96
968.0  45441.48  30391.33  66.88
969.0  45453.60  30482.16  67.06
970.0  45557.64  30477.71  66.90
971.0  45615.57  30495.44  66.85
971.9  45699.86  30595.68  66.95
972.9  45781.93  30691.76  67.04
973.9  45829.88  30744.96  67.08
974.9  45973.78  30868.24  67.14
975.8  45979.65  30921.79  67.25
976.8  46106.16  31025.42  67.29
977.8  46097.80  31029.21  67.31
978.8  46103.70  31158.02  67.58
979.7  46387.55  31159.72  67.17
980.7  46405.76  31297.70  67.44
981.7  46694.84  31408.14  67.26
982.6  46857.76  31500.96  67.23
983.6  47433.79  31758.31  66.95
984.6  47818.98  32072.53  67.07
985.5  48063.24  32335.53  67.28
986.5  48770.77  32798.41  67.25
987.5  50043.63  33411.30  66.76
988.4  50895.90  34115.55  67.03
989.4  52431.75  34821.34  66.41
990.4  53425.02  35675.07  66.78
991.3  55387.31  36674.92  66.22
992.3  55950.90  37587.53  67.18
993.2  58118.31  39044.73  67.18
994.2  59457.94  40043.45  67.35
995.2  60710.63  40585.66  66.85
996.1  61737.77  41525.27  67.26
997.1  61885.85  42082.38  68.00
998.0  61668.00  42391.04  68.74
999.0  61787.86  41721.86  67.52
1000.0  62252.49  41751.67  67.07
1000.9  62564.91  42287.06  67.59
1001.9  61626.12  41678.72  67.63
1002.8  61885.09  41981.51  67.84
1003.8  61970.58  41953.79  67.70
1004.8  62064.96  41741.73  67.25
961.5  55881.62  31808.05  56.92
965.5  54589.44  31388.93  57.50
969.5  52393.79  30675.82  58.55
973.4  50126.74  29886.71  59.62
977.4  48345.52  29326.27  60.66
981.4  47464.01  29372.46  61.88
985.3  47176.98  29576.30  62.69
989.3  47304.75  29895.00  63.20
993.3  47508.66  30219.43  63.61
997.2  47541.75  30383.86  63.91
1001.2  47520.33  30474.47  64.13
1005.2  47455.76  30521.27  64.32
1009.1  47529.68  30655.03  64.50
1013.1  47663.39  30844.20  64.71
1017.1  47785.75  31024.70  64.92
1021.0  47816.50  31152.49  65.15
1025.0  47819.30  31247.15  65.34
1029.0  47652.00  31237.33  65.55
1032.9  47495.63  31219.59  65.73
1036.9  47497.16  31279.13  65.85
1040.9  47608.97  31419.02  65.99
1044.8  47827.54  31605.36  66.08
1048.8  48004.98  31762.63  66.17
1052.7  48133.54  31891.28  66.26
1056.7  48188.20  31954.76  66.31
1060.7  48194.60  31996.99  66.39
1064.6  48198.22  32039.70  66.47
1068.6  48113.17  32005.67  66.52
1072.5  48026.55  31963.97  66.55
1076.5  47975.49  31961.67  66.62
1080.4  47966.69  31970.58  66.65
1084.4  48069.59  32030.76  66.63
1088.3  48170.15  32109.23  66.66
1092.3  48152.58  32100.32  66.66
1096.2  48142.77  32075.76  66.63
1100.2  48183.64  32081.06  66.58
1104.1  48079.94  31978.23  66.51
1108.1  48035.13  31910.24  66.43
1112.0  47943.86  31805.04  66.34
1116.0  47742.57  31632.77  66.26
1119.9  47581.47  31467.29  66.13
1123.9  47666.30  31434.93  65.95
1127.8  47639.04  31312.64  65.73
1131.8  47617.38  31151.83  65.42
1135.7  47659.94  30977.19  65.00
1139.6  47675.62  30736.17  64.47
1143.6  47638.82  30434.14  63.89
1147.5  47616.88  30123.38  63.26
1151.4  47500.80  29767.17  62.67
1155.4  47513.75  29567.46  62.23
1159.3  47522.52  29432.21  61.93
1163.2  47363.89  29228.29  61.71
1167.2  47347.50  29143.64  61.55
1171.1  47369.57  29102.14  61.44
1175.0  47314.40  29017.18  61.33
1179.0  47268.08  28942.35  61.23
1182.9  47358.68  28952.83  61.14
1186.8  47350.70  28906.92  61.05
1190.7  47139.70  28727.53  60.94
1194.7  46883.87  28546.17  60.89
1198.6  46652.76  28402.61  60.88
1202.5  46480.48  28299.77  60.89
1206.4  46340.80  28235.15  60.93
1210.3  46236.01  28205.87  61.00
1214.2  46114.66  28189.04  61.13
1218.2  45952.68  28165.40  61.29
1222.1  45800.88  28150.81  61.46
1226.0  45686.61  28146.85  61.61
1229.9  45598.02  28155.72  61.75
1233.8  45484.04  28148.74  61.89
1237.7  45416.66  28159.75  62.00
1241.6  45332.53  28144.30  62.08
1245.5  45166.97  28078.18  62.17
1249.4  45023.84  28033.20  62.26
1253.3  44894.25  27979.86  62.32
1257.2  44816.00  27934.96  62.33
1261.1  44716.86  27865.30  62.31
1265.0  44587.73  27776.44  62.30
1268.9  44400.64  27648.55  62.27
1272.8  44460.00  27674.45  62.25
1276.7  44653.74  27767.47  62.18
1280.6  44733.81  27783.05  62.11
1284.5  44649.07  27695.22  62.03
1288.4  44631.63  27623.41  61.89
1292.3  44511.50  27470.67  61.72
1296.2  44360.33  27286.56  61.51
1300.1  44197.71  27079.04  61.27
1303.9  43963.66  26818.52  61.00
1307.8  43715.49  26527.18  60.68
1311.7  43464.03  26204.51  60.29
1315.6  43214.30  25863.19  59.85
1319.5  42962.15  25489.03  59.33
1323.3  42734.84  25110.23  58.76
1327.2  42525.95  24729.37  58.15
1331.1  42285.13  24328.35  57.53
1335.0  41985.32  23880.51  56.88
1338.8  41775.29  23455.88  56.15
1342.7  41609.18  23032.61  55.35
1346.5  41242.98  22473.22  54.49
1350.4  40931.78  21924.89  53.56
1354.3  40517.39  21323.71  52.63
1358.1  40047.65  20738.55  51.78
1362.0  39764.09  20300.77  51.05
1365.8  39670.89  19974.65  50.35
1369.7  39786.92  19724.33  49.57
1373.5  39741.56  19287.69  48.53
1377.4  39487.75  18594.50  47.09
1381.2  39276.49  17784.80  45.28
1385.1  39242.56  16965.25  43.23
1389.0  39129.70  16044.26  41.00
1392.8  38925.66  15022.96  38.59
1396.6  38773.68  14013.03  36.14
1400.5  38560.99  13039.89  33.82
1404.3  38397.74  12199.65  31.77
1408.2  38363.03  11521.02  30.03
1412.0  38325.01  10958.98  28.59
1415.8  38359.09  10537.81  27.47
1419.6  38319.36  10198.61  26.61
1423.5  38299.37  9934.96  25.94
1427.3  38266.05  9734.65  25.44
1431.1  38248.58  9593.73  25.08
1434.9  38159.15  9476.21  24.83
1438.8  38104.90  9401.99  24.67
1442.6  38084.31  9357.40  24.57
1446.4  37958.74  9316.04  24.54
1450.2  37871.04  9305.37  24.57
1454.0  37772.76  9300.12  24.62
1457.8  37752.26  9332.94  24.72
1461.6  37732.17  9386.55  24.88
1465.4  37609.21  9434.37  25.09
1469.2  37426.03  9495.85  25.37
1473.0  37290.43  9599.83  25.74
1476.8  37245.30  9755.92  26.19
1480.7  37186.44  9928.08  26.70
1484.4  37061.40  10100.40  27.25
1488.2  36961.08  10289.64  27.84
1492.0  36836.53  10477.83  28.44
1495.8  36720.78  10662.93  29.04
1499.6  36605.30  10843.48  29.62
1503.4  36479.87  11018.25  30.20
1507.2  36356.05  11191.11  30.78
1510.9  36204.04  11340.12  31.32
1514.7  36047.88  11470.53  31.82
1518.5  35919.58  11619.01  32.35
1522.3  35781.38  11758.93  32.86
1526.0  35674.52  11903.41  33.37
1529.8  35609.17  12057.18  33.86
1533.6  35484.33  12181.83  34.33
1537.3  35352.32  12296.32  34.78
1541.1  35225.58  12397.08  35.19
1544.8  35097.60  12493.60  35.60
1548.6  34949.35  12600.16  36.05
1552.4  34850.72  12716.64  36.49
1556.1  34790.76  12830.84  36.88
1559.9  34705.82  12948.35  37.31
1563.6  34578.39  13041.55  37.72
1567.3  34459.02  13120.30  38.08
1571.1  34243.92  13154.70  38.41
1574.8  34100.68  13213.64  38.75
1578.6  34000.34  13283.65  39.07
1582.3  33854.52  13321.86  39.35
1586.0  33716.51  13361.69  39.63
1589.8  33582.95  13400.62  39.90
1593.5  33431.04  13423.18  40.15
1597.2  33294.67  13451.20  40.40
1600.9  33154.19  13473.62  40.64
1604.7  33000.40  13487.24  40.87
1608.4  32856.34  13504.07  41.10
1612.1  32695.22  13504.06  41.30
1615.8  32545.96  13503.27  41.49
1619.5  32465.11  13525.72  41.66
1623.2  32316.22  13511.16  41.81
1626.9  32130.25  13474.39  41.94
1630.6  31953.68  13438.26  42.06
1634.3  31816.04  13419.90  42.18
1638.0  31668.49  13395.52  42.30
1641.7  31487.82  13367.93  42.45
1645.4  31299.16  13323.41  42.57
1649.1  31105.38  13261.38  42.63
1652.8  30949.76  13205.54  42.67
1656.4  30780.36  13132.67  42.67
1660.1  30613.88  13055.56  42.65
1663.8  30416.03  12961.91  42.62
1667.5  30257.50  12884.16  42.58
1671.1  30134.40  12812.18  42.52
1674.8  29937.06  12718.74  42.48
1678.5  29873.87  12679.01  42.44
1682.1  29892.23  12660.13  42.35
1685.8  29901.92  12630.91  42.24
1689.5  29795.07  12537.29  42.08
1693.1  29653.44  12421.17  41.89
1696.8  29511.75  12298.55  41.67
1700.4  29358.15  12163.29  41.43
1704.0  29237.42  12038.93  41.18
1707.7  28983.16  11853.24  40.90
1711.3  28689.26  11644.48  40.59
1715.0  28479.20  11483.18  40.32
1718.6  28311.14  11337.87  40.05
1722.2  28171.19  11204.42  39.77
1725.9  28024.58  11085.32  39.56
1729.5  27888.80  10984.68  39.39
1733.1  27770.82  10896.26  39.24
1736.7  27655.67  10815.49  39.11
1740.3  27487.42  10704.06  38.94
1744.0  27395.86  10609.49  38.73
1747.5  27255.01  10492.50  38.50
1751.2  27041.09  10344.37  38.25
1754.8  26881.34  10222.91  38.03
1758.4  26750.86  10113.72  37.81
1762.0  26572.85  9999.56  37.63
1765.5  26446.23  9913.55  37.49
1769.1  26402.40  9861.60  37.35
1772.7  26328.38  9799.40  37.22
1776.3  26208.92  9717.21  37.08
1779.9  26081.92  9638.00  36.95
1783.5  26027.60  9589.33  36.84
1787.0  25897.14  9511.19  36.73
1790.6  25747.79  9427.97  36.62
1794.2  25651.68  9373.27  36.54
1797.8  25552.23  9313.72  36.45
1801.3  25471.95  9265.12  36.37
1804.9  25318.13  9199.75  36.34
1808.4  25235.40  9151.11  36.26
1812.0  25102.89  9077.15  36.16
1815.5  24947.72  8997.01  36.06
1819.1  24745.29  8905.88  35.99
1822.6  24588.72  8837.89  35.94
1826.2  24468.62  8770.81  35.85
1829.7  24298.19  8667.77  35.67
1833.2  24066.25  8539.67  35.48
1836.8  23846.10  8427.51  35.34
1840.3  23701.28  8359.23  35.27
1843.8  23605.26  8298.31  35.15
1847.3  23552.23  8246.89  35.02
1850.8  23482.37  8166.14  34.78
1854.3  23328.90  8027.73  34.41
1857.8  23249.20  7852.00  33.77
1861.3  23245.10  7611.70  32.75
1864.8  23154.55  7254.06  31.33
1868.3  22923.75  6806.37  29.69
1871.8  22725.12  6341.12  27.90
1875.3  22663.55  5922.43  26.13
1878.8  22668.35  5519.50  24.35
1882.3  22613.87  5062.73  22.39
1885.8  22446.65  4593.73  20.47
1889.3  22245.45  4167.72  18.74
1892.7  22073.02  3813.12  17.28
1896.2  21956.57  3566.18  16.24
1899.7  21800.31  3425.87  15.71
1903.1  21719.54  3415.10  15.72
1906.6  21807.87  3562.43  16.34
1910.0  22098.88  3919.42  17.74
1913.5  22634.73  4454.56  19.68
1917.0  23151.98  5169.50  22.33
1920.4  23436.08  5932.21  25.31
1923.8  23677.97  6483.90  27.38
1871.2  20787.15  4857.20  23.37
1873.9  20907.54  4678.33  22.38
1876.7  21048.38  4483.27  21.30
1879.5  21252.88  4193.19  19.73
1882.3  20993.42  3840.22  18.29
1885.1  20851.78  3479.61  16.69
1887.8  20921.79  3147.48  15.04
1890.6  20723.54  2837.99  13.69
1893.4  20650.67  2549.56  12.35
1896.2  20581.86  2276.18  11.06
1898.9  20516.13  2083.30  10.15
1901.7  20380.18  1896.74  9.31
1904.5  20546.36  1749.23  8.51
1907.2  20463.00  1683.08  8.23
1910.0  20358.58  1631.34  8.01
1912.7  20364.96  1571.97  7.72
1915.5  20273.08  1560.53  7.70
1918.2  20210.43  1558.96  7.71
1921.0  20079.87  1527.77  7.61
1923.7  20126.73  1538.55  7.64
1926.5  20096.89  1539.32  7.66
1929.2  20080.15  1534.93  7.64
1932.0  20066.00  1554.72  7.75
1934.7  20016.92  1558.12  7.78
1937.4  19925.11  1563.24  7.85
1940.2  19881.39  1599.16  8.04
1942.9  19959.98  1635.17  8.19
1945.6  19965.22  1648.92  8.26
1948.3  19894.11  1673.63  8.41
1951.1  19862.99  1708.68  8.60
1953.8  19866.00  1737.00  8.74
1956.5  19752.03  1764.06  8.93
1959.2  19805.76  1798.98  9.08
1961.9  19837.86  1851.57  9.33
1964.6  19745.08  1893.10  9.59
1967.3  19784.70  1919.43  9.70
1970.0  19621.84  1942.75  9.90
1972.8  19538.55  2002.30  10.25
1975.5  19602.81  2073.06  10.58
1978.2  19540.64  2080.99  10.65
1980.9  19419.73  2106.58  10.85
1983.5  19352.05  2169.62  11.21
1986.2  19366.05  2231.97  11.53
1988.9  19348.59  2277.56  11.77
1991.6  19202.00  2282.57  11.89
1994.3  19065.89  2322.22  12.18
1997.0  19096.32  2388.36  12.51
1999.7  19065.00  2429.43  12.74
2002.3  19034.90  2472.98  12.99
2005.0  18965.86  2520.92  13.29
2007.7  18877.00  2566.62  13.60
2010.4  18811.60  2605.67  13.85
2013.0  18774.16  2639.21  14.06
2015.7  18678.28  2665.48  14.27
2018.4  18548.96  2697.67  14.54
2021.0  18504.50  2747.39  14.85
2023.7  18401.60  2783.33  15.13
2026.4  18333.68  2808.22  15.32
2029.0  18267.40  2853.84  15.62
2031.7  18144.97  2877.69  15.86
2034.3  18142.15  2903.04  16.00
2037.0  18035.71  2936.05  16.28
2039.6  17974.39  2957.75  16.46
2042.3  17908.74  2964.66  16.55
2044.9  17825.78  2998.55  16.82
2047.5  17820.17  3028.47  16.99
2050.2  17715.60  3036.13  17.14
2052.8  17679.20  3068.80  17.36
2055.4  17538.43  3077.16  17.55
2058.1  17416.00  3078.13  17.67
2060.7  17404.47  3109.91  17.87
2063.3  17299.63  3128.50  18.08
2065.9  17230.17  3130.39  18.17
2068.6  17165.96  3143.42  18.31
2071.2  17119.44  3170.37  18.52
2073.8  17041.85  3173.31  18.62
2076.4  16999.98  3207.08  18.87
2079.0  17011.74  3234.31  19.01
2081.6  16984.09  3243.77  19.10
2084.2  16930.00  3264.67  19.28
2086.8  16834.24  3263.90  19.39
2089.4  16742.01  3265.95  19.51
2092.1  16637.33  3277.22  19.70
2094.7  16574.28  3295.83  19.89
2097.2  16549.50  3308.39  19.99
2099.8  16541.98  3333.45  20.15
2102.4  16400.35  3330.49  20.31
2105.0  16267.80  3318.35  20.40
2107.6  16238.35  3339.20  20.56
2110.2  16217.39  3358.85  20.71
2112.8  16200.74  3362.51  20.76
2115.3  16182.65  3374.51  20.85
2117.9  16188.40  3405.59  21.04
2120.5  16181.17  3412.49  21.09
2123.1  16113.83  3418.35  21.21
2125.6  16056.05  3424.20  21.33
2128.2  15953.26  3417.37  21.42
2130.8  15859.35  3417.38  21.55
2133.3  15825.33  3404.62  21.51
2135.9  15723.21  3416.26  21.73
2138.4  15584.92  3420.10  21.94
2141.0  15487.96  3397.69  21.94
2143.6  15482.13  3404.64  21.99
2146.1  15358.67  3383.00  22.03
2148.7  15182.57  3354.65  22.10
2151.2  15188.80  3382.13  22.27
2153.8  15199.37  3410.34  22.44
2156.3  15064.95  3392.39  22.52
2158.8  14994.07  3384.52  22.57
2161.4  14983.43  3410.24  22.76
2163.9  14894.98  3391.57  22.77
2166.4  14806.99  3372.57  22.78
2169.0  14777.42  3399.18  23.00
2171.5  14688.72  3386.37  23.05
2174.0  14586.43  3371.67  23.12
2176.5  14576.25  3385.68  23.23
2179.1  14537.32  3379.09  23.24
2181.6  14435.75  3374.22  23.37
2184.1  14405.16  3395.19  23.57
2186.6  14458.30  3400.91  23.52
2189.1  14358.33  3370.50  23.47
2191.6  14308.00  3379.91  23.62
2194.1  14339.64  3395.85  23.68
2196.6  14340.73  3387.61  23.62
2199.2  14399.84  3417.40  23.73
2201.7  14323.09  3415.72  23.85
2204.1  14264.18  3404.79  23.87
2206.6  14278.44  3415.44  23.92
2209.1  14246.74  3409.03  23.93
2211.6  14236.93  3406.97  23.93
2214.1  14172.61  3420.23  24.13
2216.6  14103.21  3402.04  24.12
2219.1  14137.40  3398.24  24.04
2221.6  14080.86  3379.05  24.00
2224.0  14024.61  3356.61  23.93
2226.5  13983.38  3338.26  23.87
2229.0  13981.89  3344.79  23.92
2231.5  13918.22  3318.06  23.84
2233.9  13896.33  3289.04  23.67
2236.4  13868.98  3277.14  23.63
2238.9  13826.00  3245.96  23.48
2241.3  13828.76  3209.09  23.21
2243.8  13758.80  3175.40  23.08
2246.2  13610.98  3137.51  23.05
2248.7  13571.61  3098.19  22.83
2251.2  13563.12  3066.98  22.61
2253.6  13482.24  3023.36  22.42
2256.1  13474.56  2990.08  22.19
2258.5  13495.78  2964.49  21.97
2260.9  13407.16  2922.27  21.80
2263.4  13372.75  2887.70  21.59
2265.8  13367.17  2856.79  21.37
2268.3  13288.30  2816.98  21.20
2270.7  13342.05  2803.26  21.01
2273.1  13272.94  2775.26  20.91
2275.6  13194.24  2722.56  20.63
2278.0  13232.60  2683.93  20.28
2280.4  13249.81  2681.01  20.23
2282.8  13117.21  2622.41  19.99
2285.3  13103.68  2572.78  19.63
2287.7  13191.09  2590.32  19.64
2290.1  13097.39  2534.09  19.35
2292.5  13047.88  2470.95  18.94
2294.9  13056.31  2455.30  18.81
2297.3  12972.40  2420.46  18.66
2299.7  12875.52  2363.73  18.36
2302.1  12826.01  2349.14  18.32
2304.5  12696.88  2318.03  18.26
2306.9  12602.80  2272.29  18.03
2309.3  12519.08  2263.49  18.08
2311.7  12473.65  2233.33  17.90
2314.1  12315.17  2208.09  17.93
2316.5  12229.76  2201.15  18.00
2318.9  12290.12  2199.45  17.90
2321.3  12265.32  2185.52  17.82
2323.7  12235.57  2184.35  17.85
2326.1  12214.93  2145.30  17.56
2328.4  12270.09  2123.67  17.31
2330.8  12319.08  2143.16  17.40
2333.2  12235.57  2094.86  17.12
2335.6  12168.54  2057.84  16.91
2337.9  12202.83  2060.24  16.88
2340.3  12141.58  2015.20  16.60
2342.7  12039.09  1971.96  16.38
2345.0  12013.82  1956.30  16.28
2347.4  11993.50  1940.83  16.18
2349.7  11798.34  1899.47  16.10
2352.1  11775.76  1886.87  16.02
2354.4  11820.42  1885.53  15.95
2356.8  11728.38  1854.73  15.81
2359.2  11704.33  1856.11  15.86
2361.5  11645.74  1829.69  15.71
2363.8  11633.53  1788.87  15.38
2366.2  11660.03  1782.99  15.29
2368.5  11627.85  1775.55  15.27
2370.9  11603.83  1741.62  15.01
2373.2  11533.95  1728.22  14.98
2375.5  11398.48  1714.98  15.05
2377.9  11373.04  1695.70  14.91
2380.2  11408.35  1675.36  14.69
2382.5  11308.30  1617.44  14.30
2384.8  11261.28  1589.97  14.12
2387.2  11252.00  1592.47  14.15
2389.5  11242.29  1589.63  14.14
2391.8  11232.13  1565.43  13.94
2394.1  11132.13  1540.26  13.84
2396.4  11089.46  1509.56  13.61
2398.7  11160.99  1485.86  13.31
2401.0  11096.58  1475.26  13.29
2403.3  10926.12  1439.22  13.17
2405.6  10921.36  1409.53  12.91
2407.9  10891.74  1421.17  13.05
2410.2  10793.71  1402.06  12.99
2412.5  10752.81  1355.11  12.60
2414.8  10737.29  1347.08  12.55
2417.1  10694.97  1333.43  12.47
2419.4  10638.82  1299.03  12.21
2421.7  10597.44  1293.14  12.20
2424.0  10571.95  1260.96  11.93
2426.2  10576.95  1228.72  11.62
2428.5  10508.39  1245.72  11.85
2430.8  10485.80  1208.08  11.52
2433.1  10443.79  1181.93  11.32
2435.4  10361.94  1193.60  11.52
2437.6  10328.37  1160.03  11.23
2439.9  10224.92  1124.87  11.00
2442.2  10193.49  1126.29  11.05
2444.4  10223.13  1127.61  11.03
2446.7  10173.28  1066.77  10.49
2448.9  10197.11  1042.21  10.22
2451.2  10173.72  1056.91  10.39
2453.4  10028.37  1008.46  10.06
2455.7  9998.26  1013.61  10.14
2457.9  9908.42  1005.29  10.15
2460.2  9870.17  961.74  9.74
2462.4  9896.64  971.36  9.82
2464.7  9834.69  935.74  9.51
2466.9  9751.98  890.24  9.13
2469.2  9722.50  924.72  9.51
2471.4  9624.29  912.54  9.48
2473.6  9553.77  881.51  9.23
2475.9  9536.85  873.76  9.16
2478.1  9427.70  847.13  8.99
2480.3  9377.37  830.76  8.86
2482.5  9321.43  822.06  8.82
2484.8  9240.44  830.11  8.98
2487.0  9258.33  809.80  8.75
2489.2  9302.30  766.40  8.24
2491.4  9183.58  765.94  8.34
2493.6  9147.34  752.48  8.23
2495.8  9177.35  744.32  8.11
2498.0  9103.79  743.11  8.16
2500.2  9132.70  732.98  8.03
2502.4  9403.92  784.40  8.34
2504.6  9512.07  788.76  8.29
2506.8  9585.80  759.85  7.93
