/*** Spectra Vista SIG Data ***/
name= AODF.sig
comm= Averaged Ref/Tar of files: AODF4,AODF5,AODF6
data=
346.4  509.60  97.04  19.04
347.9  536.51  98.31  18.32
349.5  577.20  97.76  16.94
351.1  620.88  100.26  16.15
352.6  679.94  100.99  14.85
354.2  723.22  105.81  14.63
355.7  777.89  111.35  14.31
357.3  842.60  112.58  13.36
358.8  838.80  114.87  13.69
360.4  904.00  111.39  12.32
361.9  943.76  115.16  12.20
363.5  997.20  116.11  11.64
365.1  1040.25  121.13  11.64
366.6  1087.54  119.92  11.03
368.2  1161.70  113.71  9.79
369.7  1204.79  117.98  9.79
371.3  1287.37  120.51  9.36
372.8  1354.56  124.39  9.18
374.4  1435.13  122.82  8.56
375.9  1463.02  122.91  8.40
377.4  1512.41  122.73  8.11
379.0  1578.52  125.18  7.93
380.5  1618.77  124.74  7.71
382.1  1669.58  120.76  7.23
383.6  1726.52  118.69  6.87
385.2  1809.50  120.27  6.65
386.7  1900.67  121.11  6.37
388.3  1991.93  123.38  6.19
389.8  2077.97  128.10  6.16
391.3  2163.95  132.56  6.13
392.9  2236.17  129.73  5.80
394.4  2293.88  143.03  6.24
395.9  2364.42  146.54  6.20
397.5  2493.56  154.18  6.18
399.0  2617.23  153.06  5.85
400.6  2691.33  144.52  5.37
402.1  2739.96  143.97  5.25
403.6  2797.88  137.78  4.92
405.1  2865.39  141.06  4.92
406.7  2979.20  141.12  4.74
408.2  3089.54  143.90  4.66
409.7  3183.04  146.50  4.60
411.3  3295.62  148.87  4.52
412.8  3391.47  156.26  4.61
414.3  3507.27  158.11  4.51
415.8  3622.50  166.83  4.61
417.4  3739.34  169.51  4.53
418.9  3830.42  172.04  4.49
420.4  3913.23  172.98  4.42
421.9  3978.48  174.40  4.38
423.5  4044.22  174.35  4.31
425.0  4110.68  170.21  4.14
426.5  4198.95  176.16  4.20
428.0  4314.36  177.34  4.11
429.5  4445.73  179.07  4.03
431.1  4599.50  182.54  3.97
432.6  4769.72  188.79  3.96
434.1  4937.63  195.71  3.96
435.6  5085.18  197.76  3.89
437.1  5233.80  202.67  3.87
438.6  5364.45  209.08  3.90
440.1  5501.44  213.58  3.88
441.6  5653.06  218.54  3.87
443.1  5799.60  221.81  3.82
444.7  5941.01  229.07  3.86
446.2  6051.88  230.85  3.81
447.7  6161.82  242.07  3.93
449.2  6292.08  242.21  3.85
450.7  6396.00  242.95  3.80
452.2  6529.70  244.19  3.74
453.7  6647.26  247.34  3.72
455.2  6815.62  250.82  3.68
456.7  7013.60  256.02  3.65
458.2  7232.90  261.90  3.62
459.7  7456.75  267.40  3.59
461.2  7667.16  277.93  3.62
462.7  7858.10  286.28  3.64
464.2  8041.02  293.05  3.64
465.7  8240.35  298.65  3.62
467.2  8402.63  307.49  3.66
468.7  8584.00  316.13  3.68
470.2  8698.25  322.87  3.71
471.7  8877.75  338.20  3.81
473.2  9159.71  348.56  3.81
474.6  9386.40  347.94  3.71
476.1  9450.96  346.27  3.66
477.6  9499.75  343.35  3.61
479.1  9557.87  342.13  3.58
480.6  9632.82  348.37  3.62
482.1  9760.73  351.56  3.60
483.6  9935.74  356.55  3.59
485.1  10133.78  364.02  3.59
486.6  10366.07  373.65  3.60
488.0  10621.00  384.69  3.62
489.5  10873.80  394.39  3.63
491.0  11134.31  407.00  3.66
492.5  11404.80  421.96  3.70
494.0  11683.71  434.69  3.72
495.4  11917.95  452.76  3.80
496.9  12154.26  469.38  3.86
498.4  12387.41  485.18  3.92
499.9  12623.63  506.09  4.01
501.4  12839.71  524.20  4.08
502.8  13042.06  547.47  4.20
504.3  13226.40  564.60  4.27
505.8  13406.54  584.92  4.36
507.2  13518.16  607.21  4.49
508.7  13603.31  626.02  4.60
510.2  13672.60  642.56  4.70
511.6  13715.26  662.77  4.83
513.1  13806.21  684.17  4.96
514.6  13898.29  703.78  5.06
516.0  13992.63  726.78  5.19
517.5  14151.40  749.43  5.30
519.0  14339.95  774.74  5.40
520.5  14520.56  804.04  5.54
521.9  14760.83  836.57  5.67
523.4  15031.28  874.27  5.82
524.8  15295.25  912.64  5.97
526.3  15594.01  956.42  6.13
527.8  15909.50  1002.17  6.30
529.2  16189.50  1049.31  6.48
530.7  16509.28  1096.36  6.64
532.1  16791.25  1144.69  6.82
533.6  17121.20  1199.72  7.01
535.0  17454.94  1255.60  7.19
536.5  17789.22  1316.89  7.40
538.0  18136.88  1376.69  7.59
539.4  18461.69  1439.53  7.80
540.9  18864.39  1515.70  8.03
542.3  19206.33  1587.84  8.27
543.8  19460.81  1654.62  8.50
545.2  19544.37  1704.05  8.72
546.6  19566.05  1747.99  8.93
548.1  19604.97  1793.64  9.15
549.5  19640.65  1837.30  9.35
551.0  19664.79  1881.13  9.57
552.4  19724.92  1933.43  9.80
553.9  19761.60  1981.17  10.03
555.3  19812.20  2034.75  10.27
556.8  19934.49  2089.28  10.48
558.2  20047.50  2148.98  10.72
559.6  20200.16  2209.28  10.94
561.1  20397.00  2279.55  11.18
562.5  20617.77  2353.32  11.41
564.0  20901.40  2435.19  11.65
565.4  21161.13  2513.49  11.88
566.8  21482.31  2603.06  12.12
568.3  21793.28  2690.02  12.34
569.7  22118.60  2787.21  12.60
571.1  22425.71  2879.23  12.84
572.6  22741.56  2975.72  13.08
574.0  23030.70  3073.07  13.34
575.4  23309.44  3170.59  13.60
576.9  23581.06  3271.19  13.87
578.3  23822.01  3363.13  14.12
579.7  24048.22  3458.09  14.38
581.1  24227.75  3549.23  14.65
582.6  24429.78  3646.84  14.93
584.0  24600.48  3738.55  15.20
585.4  24853.74  3852.54  15.50
586.8  25196.68  3981.26  15.80
588.3  25573.86  4126.98  16.14
589.7  25896.78  4255.84  16.43
591.1  26104.75  4366.71  16.73
592.5  26211.06  4458.48  17.01
594.0  26269.26  4539.01  17.28
595.4  26286.44  4619.13  17.57
596.8  26295.56  4692.26  17.84
598.2  26315.92  4767.19  18.12
599.6  26317.98  4847.80  18.42
601.0  26398.05  4936.83  18.70
602.4  26470.93  5025.85  18.99
603.9  26597.64  5124.33  19.27
605.3  26727.57  5227.13  19.56
606.7  26857.80  5322.96  19.82
608.1  27088.39  5441.28  20.09
609.5  27333.21  5560.49  20.34
610.9  27623.29  5692.23  20.61
612.3  27891.32  5821.51  20.87
613.7  28252.28  5966.54  21.12
615.1  28513.62  6085.69  21.34
616.5  28776.05  6211.35  21.59
617.9  29165.50  6368.87  21.84
619.3  29543.24  6527.11  22.09
620.7  29990.55  6710.97  22.38
622.1  30437.05  6866.13  22.56
623.5  30934.60  7033.08  22.74
624.9  31494.75  7190.51  22.83
626.3  31867.36  7318.20  22.96
627.7  31569.69  7326.04  23.21
629.1  31287.59  7359.42  23.52
630.5  31184.65  7432.04  23.83
631.9  31222.21  7494.57  24.00
633.3  31256.33  7547.24  24.15
634.7  31400.48  7657.44  24.39
636.1  31461.82  7746.85  24.62
637.5  31554.77  7834.26  24.83
638.9  31702.82  7922.60  24.99
640.2  31825.04  8000.10  25.14
641.6  31863.78  8064.27  25.31
643.0  31847.61  8121.00  25.50
644.4  31829.55  8184.03  25.71
645.8  31751.71  8252.16  25.99
647.2  31867.94  8406.07  26.38
648.5  31926.34  8564.95  26.83
649.9  31776.23  8690.15  27.35
651.3  31648.05  8860.74  28.00
652.7  31449.15  9013.23  28.66
654.1  31244.46  8954.73  28.66
655.5  31005.95  8843.52  28.52
656.8  30780.41  8739.40  28.39
658.2  30925.42  8767.59  28.35
659.6  31264.45  8878.72  28.40
660.9  31536.04  8994.45  28.52
662.3  31822.64  9102.27  28.60
663.7  32096.40  9207.94  28.69
665.0  32332.90  9317.24  28.82
666.4  32562.99  9427.28  28.95
667.8  32863.56  9560.95  29.09
669.1  33114.69  9680.07  29.23
670.5  33405.09  9814.35  29.38
671.9  33586.56  9916.44  29.53
673.2  33844.75  10045.86  29.68
674.6  34082.18  10172.94  29.85
676.0  34372.41  10321.60  30.03
677.3  34659.68  10467.18  30.20
678.7  34979.63  10614.80  30.35
680.0  35399.92  10791.80  30.49
681.4  35845.89  10977.07  30.62
682.8  36270.33  11169.34  30.79
684.1  36705.24  11373.34  30.99
685.5  37104.21  11562.27  31.16
686.8  37507.62  11743.71  31.31
688.2  37862.83  11909.90  31.46
689.5  38000.96  12013.54  31.61
690.9  38124.79  12113.66  31.77
692.2  38229.60  12201.75  31.92
693.6  38334.37  12292.37  32.07
694.9  38335.34  12355.15  32.23
696.2  38393.33  12432.08  32.38
697.6  38453.39  12497.68  32.50
698.9  38522.88  12582.42  32.66
700.3  38613.54  12675.91  32.83
701.6  38716.02  12769.13  32.98
703.0  38828.83  12854.22  33.10
704.3  38882.19  12910.46  33.20
705.6  38895.39  12972.76  33.35
707.0  38949.12  13026.99  33.45
708.3  38885.46  13065.57  33.60
709.6  38817.35  13085.36  33.71
711.0  38702.88  13089.19  33.82
712.3  38573.15  13102.76  33.97
713.6  38531.64  13139.64  34.10
714.9  38462.14  13167.92  34.24
716.3  38461.08  13211.92  34.35
717.6  38479.84  13278.11  34.51
718.9  38424.85  13298.93  34.61
720.2  38251.08  13278.31  34.71
721.6  38113.53  13267.63  34.81
722.9  37945.16  13260.46  34.95
724.2  37714.27  13231.77  35.08
725.5  37534.96  13229.78  35.25
726.8  37360.68  13210.40  35.36
728.1  37271.09  13219.49  35.47
729.5  37167.13  13229.60  35.59
730.8  37093.13  13255.52  35.74
732.1  36996.92  13273.40  35.88
733.4  36936.39  13307.43  36.03
734.7  36864.47  13325.62  36.15
736.0  36851.62  13373.86  36.29
737.3  36774.45  13405.87  36.45
738.6  36845.76  13481.34  36.59
739.9  37000.34  13593.00  36.74
741.2  37119.81  13680.03  36.85
742.5  37372.03  13818.03  36.97
743.8  37768.50  14017.47  37.11
745.1  38387.22  14313.19  37.29
746.4  39127.73  14640.81  37.42
747.7  39918.22  14991.26  37.55
749.0  40672.12  15315.80  37.66
750.3  41122.66  15514.41  37.73
751.6  41047.35  15530.45  37.84
752.9  40630.59  15433.67  37.99
754.2  40176.47  15303.06  38.09
755.4  39652.21  15174.94  38.27
756.7  39478.17  15169.82  38.43
758.0  39495.60  15228.76  38.56
759.3  39730.28  15384.57  38.72
760.6  40061.56  15590.34  38.92
761.9  40384.10  15775.59  39.06
763.1  40567.56  15904.54  39.21
764.4  40796.65  16041.96  39.32
765.7  40953.25  16155.75  39.45
767.0  41079.80  16260.85  39.58
768.2  41207.04  16370.59  39.73
769.5  41279.98  16452.53  39.86
770.8  41469.61  16570.90  39.96
772.0  41501.32  16644.72  40.11
773.3  41583.65  16733.75  40.24
774.6  41708.58  16820.05  40.33
775.8  41815.15  16906.21  40.43
777.1  41846.51  16968.28  40.55
778.4  41799.94  16985.80  40.64
779.6  41775.90  17032.62  40.77
780.9  41704.00  17064.00  40.92
782.1  41523.21  17063.50  41.09
783.4  41558.40  17108.14  41.17
784.6  41567.36  17148.82  41.26
785.9  41861.56  17328.88  41.40
787.1  42409.87  17628.96  41.57
788.4  42854.47  17859.89  41.68
789.6  42849.18  17855.74  41.67
790.9  42483.96  17686.35  41.63
792.1  42011.92  17550.76  41.78
793.4  41570.15  17422.65  41.91
794.6  41283.15  17326.52  41.97
795.8  41024.39  17260.12  42.07
797.1  40758.68  17197.12  42.19
798.3  40551.64  17169.00  42.34
799.5  40444.72  17155.05  42.42
800.8  40323.21  17151.44  42.53
802.0  40187.32  17136.52  42.64
803.2  40033.64  17114.53  42.75
804.5  39942.72  17105.90  42.83
805.7  39829.66  17103.49  42.94
806.9  39715.93  17094.55  43.04
808.1  39632.97  17107.70  43.17
809.4  39553.39  17130.88  43.31
810.6  39489.45  17137.12  43.40
811.8  39474.39  17181.93  43.53
813.0  39504.71  17243.11  43.65
814.2  39525.61  17311.01  43.80
815.4  39644.33  17404.74  43.90
816.6  39709.73  17465.58  43.98
817.9  39791.57  17520.44  44.03
819.1  39719.87  17526.66  44.13
820.3  39621.11  17522.36  44.22
821.5  39546.25  17529.38  44.33
822.7  39480.04  17546.89  44.44
823.9  39499.25  17600.49  44.56
825.1  39541.96  17653.36  44.64
826.3  39583.35  17708.18  44.74
827.5  39640.56  17773.15  44.84
828.7  39708.48  17836.90  44.92
829.9  39767.03  17908.04  45.03
831.0  39870.82  18012.40  45.18
832.2  39993.87  18092.15  45.24
833.4  40076.64  18180.73  45.36
834.6  40148.44  18275.00  45.52
835.8  40238.10  18361.98  45.63
837.0  40328.28  18455.31  45.76
838.1  40500.72  18564.72  45.84
839.3  40601.19  18656.97  45.95
840.5  40716.87  18746.82  46.04
841.7  40854.11  18868.11  46.18
842.9  40980.73  19008.01  46.38
844.0  41100.82  19112.68  46.50
845.2  41245.09  19235.79  46.64
846.4  41368.25  19342.43  46.76
847.5  41564.18  19496.63  46.91
848.7  41743.64  19632.41  47.03
849.9  41936.76  19727.04  47.04
851.0  42020.98  19797.67  47.11
852.2  42107.61  19842.63  47.12
853.3  42066.96  19883.60  47.27
854.5  42098.11  19924.01  47.33
855.6  42095.43  19964.12  47.43
856.8  42111.00  20019.69  47.54
857.9  42111.88  20066.77  47.65
859.1  42240.60  20150.83  47.70
860.2  42245.56  20185.60  47.78
861.4  42273.83  20254.59  47.91
862.5  42309.54  20306.68  48.00
863.7  42384.63  20358.52  48.03
864.8  42387.10  20414.17  48.16
865.9  42333.82  20424.68  48.25
867.1  42372.33  20466.27  48.30
868.2  42368.54  20510.80  48.41
869.3  42393.50  20545.57  48.46
870.5  42342.80  20547.23  48.53
871.6  42318.48  20598.24  48.67
872.7  42385.23  20666.33  48.76
873.9  42404.90  20708.19  48.83
875.0  42391.36  20720.45  48.88
876.1  42363.75  20752.59  48.99
877.2  42397.32  20790.59  49.04
878.3  42381.77  20827.95  49.14
879.4  42397.70  20863.06  49.21
880.5  42451.56  20900.38  49.23
881.7  42410.55  20917.69  49.32
882.8  42454.72  20968.91  49.39
883.9  42482.63  20991.73  49.41
885.0  42446.04  20985.24  49.44
886.1  42420.10  20982.48  49.46
887.2  42295.80  20918.61  49.46
888.3  42201.80  20894.37  49.51
889.4  42117.30  20851.41  49.51
890.5  42026.34  20826.76  49.56
891.6  41981.69  20822.13  49.60
892.7  41962.31  20841.82  49.67
893.8  41981.79  20880.96  49.74
894.9  41952.35  20904.05  49.83
896.0  41968.71  20936.94  49.89
897.0  41952.48  20933.77  49.90
898.1  41951.64  20968.70  49.98
899.2  41983.30  20990.72  50.00
900.3  41907.57  20989.15  50.08
901.4  41820.39  20973.05  50.15
902.4  41828.99  20985.52  50.17
903.5  41775.96  20981.15  50.22
904.6  41798.96  21013.41  50.27
905.7  41805.42  21045.67  50.34
906.7  41815.90  21045.41  50.33
907.8  41839.20  21099.10  50.43
908.9  41746.38  21063.00  50.45
909.9  41734.69  21079.19  50.51
911.0  41681.88  21060.63  50.53
912.1  41602.05  21039.69  50.57
913.1  41535.52  21010.15  50.58
914.2  41457.24  20991.37  50.63
915.2  41368.59  21004.31  50.77
916.3  41436.15  21023.93  50.74
917.3  41410.15  21031.39  50.79
918.4  41310.50  21020.87  50.89
919.4  41328.17  20990.29  50.79
920.5  41309.67  21006.40  50.85
921.5  41323.66  21033.14  50.90
922.6  41255.80  21025.68  50.96
923.6  41303.54  21055.12  50.98
924.7  41344.50  21067.85  50.96
925.7  41333.16  21068.40  50.97
926.7  41356.90  21104.08  51.03
927.8  41415.30  21118.81  50.99
928.8  41570.85  21182.67  50.96
929.9  41658.93  21242.10  50.99
930.9  41879.39  21344.63  50.97
931.9  42070.56  21468.90  51.03
932.9  42412.10  21610.08  50.95
934.0  42452.50  21638.32  50.97
935.0  42440.57  21679.01  51.08
936.0  42488.02  21659.77  50.98
937.0  42429.47  21672.69  51.08
938.1  42380.86  21672.21  51.14
939.1  42337.65  21685.98  51.22
940.1  42429.30  21705.51  51.16
941.1  42615.86  21837.76  51.24
942.1  42903.92  21929.78  51.11
943.1  43057.09  22043.03  51.19
944.1  43342.63  22153.47  51.11
945.2  43356.60  22196.49  51.20
946.2  43482.48  22213.53  51.09
947.2  43549.00  22263.13  51.12
948.2  43743.16  22348.85  51.09
949.2  43840.88  22371.65  51.03
950.2  43906.25  22402.26  51.02
951.2  44010.96  22431.98  50.97
952.2  44061.91  22485.67  51.03
953.2  44318.14  22548.97  50.88
954.2  44380.80  22610.49  50.95
955.2  44428.35  22602.34  50.87
956.2  44460.20  22607.91  50.85
957.2  44542.35  22580.90  50.70
958.2  44649.94  22633.72  50.69
959.2  44705.25  22666.20  50.70
960.1  44813.66  22681.99  50.61
961.1  44928.76  22774.81  50.69
962.1  44958.75  22762.00  50.63
963.1  44986.01  22834.75  50.76
964.1  45106.16  22864.99  50.69
965.1  45270.70  22937.16  50.67
966.1  45207.41  22997.16  50.87
967.0  45355.66  23021.74  50.76
968.0  45441.48  23071.35  50.77
969.0  45453.60  23113.43  50.85
970.0  45557.64  23134.93  50.78
971.0  45615.57  23192.09  50.84
971.9  45699.86  23225.45  50.82
972.9  45781.93  23230.27  50.74
973.9  45829.88  23290.65  50.82
974.9  45973.78  23310.98  50.70
975.8  45979.65  23322.85  50.72
976.8  46106.16  23348.05  50.64
977.8  46097.80  23353.67  50.66
978.8  46103.70  23378.73  50.71
979.7  46387.55  23488.36  50.64
980.7  46405.76  23585.95  50.83
981.7  46694.84  23619.88  50.58
982.6  46857.76  23819.36  50.83
983.6  47433.79  23883.04  50.35
984.6  47818.98  24219.43  50.65
985.5  48063.24  24345.62  50.65
986.5  48770.77  24735.81  50.72
987.5  50043.63  25192.91  50.34
988.4  50895.90  25543.98  50.19
989.4  52431.75  25841.36  49.29
990.4  53425.02  26323.26  49.27
991.3  55387.31  26744.97  48.29
992.3  55950.90  27310.30  48.81
993.2  58118.31  27765.14  47.77
994.2  59457.94  28522.94  47.97
995.2  60710.63  28443.54  46.85
996.1  61737.77  29198.09  47.29
997.1  61885.85  28836.63  46.60
998.0  61668.00  28641.36  46.44
999.0  61787.86  28689.80  46.43
1000.0  62252.49  28376.13  45.58
1000.9  62564.91  28882.17  46.16
1001.9  61626.12  28434.51  46.14
1002.8  61885.09  27931.92  45.14
1003.8  61970.58  27959.50  45.12
1004.8  62064.96  28476.86  45.88
961.5  55881.62  24975.92  44.69
965.5  54589.44  24849.57  45.52
969.5  52393.79  24639.48  47.03
973.4  50126.74  24191.86  48.26
977.4  48345.52  23567.33  48.75
981.4  47464.01  23352.58  49.20
985.3  47176.98  23273.80  49.33
989.3  47304.75  23263.34  49.18
993.3  47508.66  23275.43  48.99
997.2  47541.75  23222.94  48.85
1001.2  47520.33  23212.41  48.85
1005.2  47455.76  23262.37  49.02
1009.1  47529.68  23390.92  49.21
1013.1  47663.39  23557.28  49.42
1017.1  47785.75  23704.03  49.60
1021.0  47816.50  23766.21  49.70
1025.0  47819.30  23807.00  49.79
1029.0  47652.00  23779.07  49.90
1032.9  47495.63  23759.36  50.02
1036.9  47497.16  23827.98  50.17
1040.9  47608.97  23970.59  50.35
1044.8  47827.54  24139.33  50.47
1048.8  48004.98  24288.20  50.60
1052.7  48133.54  24409.20  50.71
1056.7  48188.20  24465.56  50.77
1060.7  48194.60  24516.61  50.87
1064.6  48198.22  24567.47  50.97
1068.6  48113.17  24555.68  51.04
1072.5  48026.55  24536.45  51.09
1076.5  47975.49  24537.62  51.15
1080.4  47966.69  24547.17  51.18
1084.4  48069.59  24590.41  51.16
1088.3  48170.15  24636.19  51.14
1092.3  48152.58  24598.22  51.08
1096.2  48142.77  24577.64  51.05
1100.2  48183.64  24595.84  51.05
1104.1  48079.94  24529.88  51.02
1108.1  48035.13  24479.70  50.96
1112.0  47943.86  24370.43  50.83
1116.0  47742.57  24189.15  50.67
1119.9  47581.47  24019.06  50.48
1123.9  47666.30  23947.78  50.24
1127.8  47639.04  23786.24  49.93
1131.8  47617.38  23576.28  49.51
1135.7  47659.94  23332.57  48.96
1139.6  47675.62  23013.90  48.27
1143.6  47638.82  22648.19  47.54
1147.5  47616.88  22305.89  46.84
1151.4  47500.80  21953.04  46.22
1155.4  47513.75  21748.23  45.77
1159.3  47522.52  21620.87  45.50
1163.2  47363.89  21451.45  45.29
1167.2  47347.50  21373.34  45.14
1171.1  47369.57  21317.65  45.00
1175.0  47314.40  21233.50  44.88
1179.0  47268.08  21170.79  44.79
1182.9  47358.68  21167.08  44.70
1186.8  47350.70  21120.26  44.60
1190.7  47139.70  20985.79  44.52
1194.7  46883.87  20842.30  44.46
1198.6  46652.76  20740.34  44.46
1202.5  46480.48  20689.46  44.51
1206.4  46340.80  20669.26  44.60
1210.3  46236.01  20678.99  44.72
1214.2  46114.66  20694.11  44.88
1218.2  45952.68  20702.01  45.05
1222.1  45800.88  20719.83  45.24
1226.0  45686.61  20750.71  45.42
1229.9  45598.02  20784.48  45.58
1233.8  45484.04  20797.15  45.72
1237.7  45416.66  20811.98  45.82
1241.6  45332.53  20815.52  45.92
1245.5  45166.97  20784.48  46.02
1249.4  45023.84  20749.36  46.09
1253.3  44894.25  20718.67  46.15
1257.2  44816.00  20705.97  46.20
1261.1  44716.86  20675.41  46.24
1265.0  44587.73  20625.67  46.26
1268.9  44400.64  20530.56  46.24
1272.8  44460.00  20539.00  46.20
1276.7  44653.74  20603.14  46.14
1280.6  44733.81  20605.23  46.06
1284.5  44649.07  20516.54  45.95
1288.4  44631.63  20437.50  45.79
1292.3  44511.50  20302.33  45.61
1296.2  44360.33  20136.07  45.39
1300.1  44197.71  19930.57  45.09
1303.9  43963.66  19666.56  44.73
1307.8  43715.49  19379.75  44.33
1311.7  43464.03  19078.40  43.89
1315.6  43214.30  18758.38  43.41
1319.5  42962.15  18396.96  42.82
1323.3  42734.84  18025.12  42.18
1327.2  42525.95  17645.87  41.49
1331.1  42285.13  17232.96  40.75
1335.0  41985.32  16787.58  39.98
1338.8  41775.29  16373.17  39.19
1342.7  41609.18  15968.26  38.38
1346.5  41242.98  15469.90  37.51
1350.4  40931.78  14975.00  36.59
1354.3  40517.39  14447.38  35.66
1358.1  40047.65  13949.27  34.83
1362.0  39764.09  13559.61  34.10
1365.8  39670.89  13252.32  33.41
1369.7  39786.92  12979.45  32.62
1373.5  39741.56  12523.07  31.51
1377.4  39487.75  11831.24  29.96
1381.2  39276.49  11012.10  28.04
1385.1  39242.56  10181.73  25.95
1389.0  39129.70  9303.00  23.77
1392.8  38925.66  8365.27  21.49
1396.6  38773.68  7457.96  19.23
1400.5  38560.99  6644.51  17.23
1404.3  38397.74  5966.49  15.54
1408.2  38363.03  5427.59  14.15
1412.0  38325.01  5001.92  13.05
1415.8  38359.09  4693.64  12.24
1419.6  38319.36  4449.17  11.61
1423.5  38299.37  4262.55  11.13
1427.3  38266.05  4131.24  10.80
1431.1  38248.58  4040.08  10.56
1434.9  38159.15  3964.72  10.39
1438.8  38104.90  3916.98  10.28
1442.6  38084.31  3892.06  10.22
1446.4  37958.74  3867.79  10.19
1450.2  37871.04  3862.17  10.20
1454.0  37772.76  3866.12  10.24
1457.8  37752.26  3884.56  10.29
1461.6  37732.17  3921.00  10.39
1465.4  37609.21  3971.09  10.56
1469.2  37426.03  4032.82  10.78
1473.0  37290.43  4120.61  11.05
1476.8  37245.30  4243.91  11.39
1480.7  37186.44  4377.20  11.77
1484.4  37061.40  4517.44  12.19
1488.2  36961.08  4670.20  12.64
1492.0  36836.53  4826.94  13.10
1495.8  36720.78  4986.05  13.58
1499.6  36605.30  5135.35  14.03
1503.4  36479.87  5270.02  14.45
1507.2  36356.05  5397.84  14.85
1510.9  36204.04  5523.23  15.26
1514.7  36047.88  5654.94  15.69
1518.5  35919.58  5798.90  16.14
1522.3  35781.38  5931.98  16.58
1526.0  35674.52  6074.73  17.03
1529.8  35609.17  6227.58  17.49
1533.6  35484.33  6362.18  17.93
1537.3  35352.32  6489.90  18.36
1541.1  35225.58  6610.65  18.77
1544.8  35097.60  6740.00  19.20
1548.6  34949.35  6869.83  19.66
1552.4  34850.72  6987.55  20.05
1556.1  34790.76  7088.61  20.37
1559.9  34705.82  7177.21  20.68
1563.6  34578.39  7262.56  21.00
1567.3  34459.02  7358.81  21.36
1571.1  34243.92  7429.07  21.69
1574.8  34100.68  7503.14  22.00
1578.6  34000.34  7581.90  22.30
1582.3  33854.52  7645.60  22.58
1586.0  33716.51  7702.34  22.84
1589.8  33582.95  7752.13  23.08
1593.5  33431.04  7796.89  23.32
1597.2  33294.67  7844.87  23.56
1600.9  33154.19  7885.05  23.78
1604.7  33000.40  7918.69  24.00
1608.4  32856.34  7959.05  24.22
1612.1  32695.22  7985.17  24.42
1615.8  32545.96  8007.97  24.61
1619.5  32465.11  8044.58  24.78
1623.2  32316.22  8056.32  24.93
1626.9  32130.25  8057.18  25.08
1630.6  31953.68  8057.79  25.22
1634.3  31816.04  8055.97  25.32
1638.0  31668.49  8043.10  25.40
1641.7  31487.82  8023.48  25.48
1645.4  31299.16  7991.17  25.53
1649.1  31105.38  7943.02  25.54
1652.8  30949.76  7891.75  25.50
1656.4  30780.36  7830.65  25.44
1660.1  30613.88  7765.47  25.37
1663.8  30416.03  7699.93  25.32
1667.5  30257.50  7650.68  25.29
1671.1  30134.40  7606.02  25.24
1674.8  29937.06  7552.70  25.23
1678.5  29873.87  7535.27  25.22
1682.1  29892.23  7524.75  25.17
1685.8  29901.92  7507.64  25.11
1689.5  29795.07  7453.69  25.02
1693.1  29653.44  7380.97  24.89
1696.8  29511.75  7299.17  24.73
1700.4  29358.15  7208.73  24.55
1704.0  29237.42  7125.77  24.37
1707.7  28983.16  7000.03  24.15
1711.3  28689.26  6860.54  23.91
1715.0  28479.20  6748.20  23.70
1718.6  28311.14  6652.09  23.50
1722.2  28171.19  6562.60  23.30
1725.9  28024.58  6479.71  23.12
1729.5  27888.80  6405.06  22.97
1733.1  27770.82  6338.96  22.83
1736.7  27655.67  6275.78  22.69
1740.3  27487.42  6185.49  22.50
1744.0  27395.86  6108.20  22.30
1747.5  27255.01  6013.37  22.06
1751.2  27041.09  5901.63  21.82
1754.8  26881.34  5810.66  21.62
1758.4  26750.86  5729.55  21.42
1762.0  26572.85  5647.60  21.25
1765.5  26446.23  5581.50  21.11
1769.1  26402.40  5536.80  20.97
1772.7  26328.38  5486.79  20.84
1776.3  26208.92  5424.16  20.70
1779.9  26081.92  5364.98  20.57
1783.5  26027.60  5324.56  20.46
1787.0  25897.14  5276.22  20.37
1790.6  25747.79  5227.91  20.30
1794.2  25651.68  5193.01  20.24
1797.8  25552.23  5160.23  20.19
1801.3  25471.95  5140.08  20.18
1804.9  25318.13  5101.25  20.15
1808.4  25235.40  5070.21  20.09
1812.0  25102.89  5030.90  20.04
1815.5  24947.72  4990.10  20.00
1819.1  24745.29  4946.03  19.99
1822.6  24588.72  4903.32  19.94
1826.2  24468.62  4862.02  19.87
1829.7  24298.19  4803.20  19.77
1833.2  24066.25  4729.29  19.65
1836.8  23846.10  4661.78  19.55
1840.3  23701.28  4609.95  19.45
1843.8  23605.26  4561.90  19.33
1847.3  23552.23  4526.31  19.22
1850.8  23482.37  4468.80  19.03
1854.3  23328.90  4368.30  18.72
1857.8  23249.20  4220.67  18.15
1861.3  23245.10  4004.91  17.23
1864.8  23154.55  3719.63  16.06
1868.3  22923.75  3351.77  14.62
1871.8  22725.12  2990.08  13.16
1875.3  22663.55  2653.11  11.71
1878.8  22668.35  2343.40  10.34
1882.3  22613.87  2062.69  9.12
1885.8  22446.65  1788.24  7.97
1889.3  22245.45  1568.11  7.05
1892.7  22073.02  1410.74  6.39
1896.2  21956.57  1308.78  5.96
1899.7  21800.31  1285.15  5.90
1903.1  21719.54  1323.78  6.09
1906.6  21807.87  1454.93  6.67
1910.0  22098.88  1737.33  7.86
1913.5  22634.73  2097.36  9.27
1917.0  23151.98  2609.37  11.27
1920.4  23436.08  3081.67  13.15
1923.8  23677.97  3395.47  14.34
1871.2  20787.15  2148.16  10.33
1873.9  20907.54  1957.96  9.36
1876.7  21048.38  1793.97  8.52
1879.5  21252.88  1573.23  7.40
1882.3  20993.42  1350.24  6.43
1885.1  20851.78  1137.84  5.46
1887.8  20921.79  951.11  4.55
1890.6  20723.54  836.84  4.04
1893.4  20650.67  723.56  3.50
1896.2  20581.86  591.39  2.87
1898.9  20516.13  522.43  2.55
1901.7  20380.18  466.35  2.29
1904.5  20546.36  432.02  2.10
1907.2  20463.00  405.33  1.98
1910.0  20358.58  387.66  1.90
1912.7  20364.96  380.32  1.87
1915.5  20273.08  377.59  1.86
1918.2  20210.43  388.85  1.92
1921.0  20079.87  378.22  1.88
1923.7  20126.73  354.62  1.76
1926.5  20096.89  363.66  1.81
1929.2  20080.15  378.39  1.88
1932.0  20066.00  380.25  1.90
1934.7  20016.92  372.07  1.86
1937.4  19925.11  374.27  1.88
1940.2  19881.39  390.32  1.96
1942.9  19959.98  388.75  1.95
1945.6  19965.22  380.52  1.91
1948.3  19894.11  392.09  1.97
1951.1  19862.99  407.35  2.05
1953.8  19866.00  408.00  2.05
1956.5  19752.03  417.31  2.11
1959.2  19805.76  435.54  2.20
1961.9  19837.86  446.01  2.25
1964.6  19745.08  464.10  2.35
1967.3  19784.70  477.63  2.41
1970.0  19621.84  471.63  2.40
1972.8  19538.55  484.39  2.48
1975.5  19602.81  499.48  2.55
1978.2  19540.64  522.68  2.67
1980.9  19419.73  548.02  2.82
1983.5  19352.05  553.55  2.86
1986.2  19366.05  558.72  2.89
1988.9  19348.59  582.00  3.01
1991.6  19202.00  600.57  3.13
1994.3  19065.89  616.18  3.23
1997.0  19096.32  641.06  3.36
1999.7  19065.00  650.91  3.41
2002.3  19034.90  674.10  3.54
2005.0  18965.86  697.11  3.68
2007.7  18877.00  711.89  3.77
2010.4  18811.60  730.88  3.89
2013.0  18774.16  759.62  4.05
2015.7  18678.28  776.72  4.16
2018.4  18548.96  798.05  4.30
2021.0  18504.50  825.45  4.46
2023.7  18401.60  836.69  4.55
2026.4  18333.68  846.88  4.62
2029.0  18267.40  865.06  4.74
2031.7  18144.97  885.37  4.88
2034.3  18142.15  897.58  4.95
2037.0  18035.71  915.81  5.08
2039.6  17974.39  938.71  5.22
2042.3  17908.74  948.28  5.30
2044.9  17825.78  963.05  5.40
2047.5  17820.17  970.53  5.45
2050.2  17715.60  991.20  5.60
2052.8  17679.20  1017.33  5.75
2055.4  17538.43  1015.14  5.79
2058.1  17416.00  1019.20  5.85
2060.7  17404.47  1047.19  6.02
2063.3  17299.63  1058.93  6.12
2065.9  17230.17  1061.76  6.16
2068.6  17165.96  1084.10  6.32
2071.2  17119.44  1101.12  6.43
2073.8  17041.85  1109.07  6.51
2076.4  16999.98  1124.54  6.61
2079.0  17011.74  1136.18  6.68
2081.6  16984.09  1163.78  6.85
2084.2  16930.00  1173.81  6.93
2086.8  16834.24  1157.73  6.88
2089.4  16742.01  1169.65  6.99
2092.1  16637.33  1196.61  7.19
2094.7  16574.28  1209.10  7.30
2097.2  16549.50  1211.72  7.32
2099.8  16541.98  1219.32  7.37
2102.4  16400.35  1220.74  7.44
2105.0  16267.80  1228.35  7.55
2107.6  16238.35  1231.43  7.58
2110.2  16217.39  1236.12  7.62
2112.8  16200.74  1261.78  7.79
2115.3  16182.65  1270.13  7.85
2117.9  16188.40  1275.77  7.88
2120.5  16181.17  1282.60  7.93
2123.1  16113.83  1288.95  8.00
2125.6  16056.05  1300.18  8.10
2128.2  15953.26  1297.49  8.13
2130.8  15859.35  1296.75  8.18
2133.3  15825.33  1312.18  8.29
2135.9  15723.21  1311.98  8.34
2138.4  15584.92  1304.39  8.37
2141.0  15487.96  1305.60  8.43
2143.6  15482.13  1316.32  8.50
2146.1  15358.67  1309.52  8.53
2148.7  15182.57  1307.80  8.61
2151.2  15188.80  1328.80  8.75
2153.8  15199.37  1348.05  8.87
2156.3  15064.95  1349.67  8.96
2158.8  14994.07  1350.66  9.01
2161.4  14983.43  1367.05  9.12
2163.9  14894.98  1363.12  9.15
2166.4  14806.99  1364.01  9.21
2169.0  14777.42  1383.72  9.36
2171.5  14688.72  1372.88  9.35
2174.0  14586.43  1376.43  9.44
2176.5  14576.25  1379.39  9.46
2179.1  14537.32  1380.35  9.50
2181.6  14435.75  1396.13  9.67
2184.1  14405.16  1402.43  9.74
2186.6  14458.30  1404.93  9.72
2189.1  14358.33  1395.28  9.72
2191.6  14308.00  1407.93  9.84
2194.1  14339.64  1410.60  9.84
2196.6  14340.73  1415.28  9.87
2199.2  14399.84  1437.20  9.98
2201.7  14323.09  1431.47  9.99
2204.1  14264.18  1422.02  9.97
2206.6  14278.44  1432.32  10.03
2209.1  14246.74  1452.18  10.19
2211.6  14236.93  1446.53  10.16
2214.1  14172.61  1443.37  10.18
2216.6  14103.21  1453.50  10.31
2219.1  14137.40  1450.96  10.26
2221.6  14080.86  1444.00  10.26
2224.0  14024.61  1419.86  10.12
2226.5  13983.38  1398.97  10.00
2229.0  13981.89  1418.62  10.15
2231.5  13918.22  1395.40  10.03
2233.9  13896.33  1359.75  9.78
2236.4  13868.98  1371.59  9.89
2238.9  13826.00  1352.38  9.78
2241.3  13828.76  1322.76  9.57
2243.8  13758.80  1308.51  9.51
2246.2  13610.98  1274.13  9.36
2248.7  13571.61  1261.13  9.29
2251.2  13563.12  1246.52  9.19
2253.6  13482.24  1205.76  8.94
2256.1  13474.56  1195.52  8.87
2258.5  13495.78  1207.56  8.95
2260.9  13407.16  1170.96  8.73
2263.4  13372.75  1145.10  8.56
2265.8  13367.17  1143.74  8.56
2268.3  13288.30  1098.06  8.26
2270.7  13342.05  1081.13  8.10
2273.1  13272.94  1086.58  8.19
2275.6  13194.24  1047.04  7.94
2278.0  13232.60  1040.26  7.86
2280.4  13249.81  1037.77  7.83
2282.8  13117.21  1005.34  7.66
2285.3  13103.68  994.12  7.59
2287.7  13191.09  965.84  7.32
2290.1  13097.39  939.58  7.17
2292.5  13047.88  923.30  7.08
2294.9  13056.31  902.30  6.91
2297.3  12972.40  884.60  6.82
2299.7  12875.52  866.00  6.73
2302.1  12826.01  845.90  6.60
2304.5  12696.88  819.28  6.45
2306.9  12602.80  802.29  6.37
2309.3  12519.08  803.26  6.42
2311.7  12473.65  804.63  6.45
2314.1  12315.17  767.98  6.24
2316.5  12229.76  776.18  6.35
2318.9  12290.12  796.22  6.48
2321.3  12265.32  758.00  6.18
2323.7  12235.57  764.06  6.24
2326.1  12214.93  745.55  6.10
2328.4  12270.09  724.16  5.90
2330.8  12319.08  738.93  6.00
2333.2  12235.57  728.94  5.96
2335.6  12168.54  694.71  5.71
2337.9  12202.83  676.08  5.54
2340.3  12141.58  674.53  5.56
2342.7  12039.09  661.55  5.50
2345.0  12013.82  652.57  5.43
2347.4  11993.50  640.33  5.34
2349.7  11798.34  608.00  5.15
2352.1  11775.76  621.81  5.28
2354.4  11820.42  617.53  5.22
2356.8  11728.38  568.36  4.85
2359.2  11704.33  582.11  4.97
2361.5  11645.74  587.60  5.05
2363.8  11633.53  573.84  4.93
2366.2  11660.03  569.32  4.88
2368.5  11627.85  538.45  4.63
2370.9  11603.83  503.99  4.34
2373.2  11533.95  514.12  4.46
2375.5  11398.48  530.94  4.66
2377.9  11373.04  501.42  4.41
2380.2  11408.35  497.87  4.36
2382.5  11308.30  503.92  4.46
2384.8  11261.28  471.73  4.19
2387.2  11252.00  448.52  3.99
2389.5  11242.29  437.54  3.89
2391.8  11232.13  440.48  3.92
2394.1  11132.13  447.85  4.02
2396.4  11089.46  422.55  3.81
2398.7  11160.99  430.33  3.86
2401.0  11096.58  435.16  3.92
2403.3  10926.12  426.62  3.90
2405.6  10921.36  419.86  3.84
2407.9  10891.74  395.79  3.63
2410.2  10793.71  387.70  3.59
2412.5  10752.81  374.35  3.48
2414.8  10737.29  376.57  3.51
2417.1  10694.97  375.08  3.51
2419.4  10638.82  345.60  3.25
2421.7  10597.44  362.71  3.42
2424.0  10571.95  348.70  3.30
2426.2  10576.95  313.87  2.97
2428.5  10508.39  306.47  2.92
2430.8  10485.80  332.45  3.17
2433.1  10443.79  309.78  2.97
2435.4  10361.94  289.08  2.79
2437.6  10328.37  290.94  2.82
2439.9  10224.92  260.16  2.54
2442.2  10193.49  292.00  2.86
2444.4  10223.13  275.68  2.70
2446.7  10173.28  270.59  2.66
2448.9  10197.11  280.29  2.75
2451.2  10173.72  250.32  2.46
2453.4  10028.37  233.03  2.32
2455.7  9998.26  243.27  2.43
2457.9  9908.42  238.10  2.40
2460.2  9870.17  232.22  2.35
2462.4  9896.64  237.12  2.40
2464.7  9834.69  201.87  2.05
2466.9  9751.98  190.46  1.95
2469.2  9722.50  220.38  2.27
2471.4  9624.29  203.52  2.11
2473.6  9553.77  174.07  1.82
2475.9  9536.85  232.55  2.44
2478.1  9427.70  227.72  2.42
2480.3  9377.37  190.29  2.03
2482.5  9321.43  200.15  2.15
2484.8  9240.44  199.03  2.15
2487.0  9258.33  167.88  1.81
2489.2  9302.30  130.67  1.40
2491.4  9183.58  192.13  2.09
2493.6  9147.34  211.64  2.31
2495.8  9177.35  163.65  1.78
2498.0  9103.79  145.92  1.60
2500.2  9132.70  154.46  1.69
2502.4  9403.92  183.52  1.95
2504.6  9512.07  175.28  1.84
2506.8  9585.80  155.87  1.63
