/*** Spectra Vista SIG Data ***/
name= AMB.sig
comm= Averaged Ref/Tar of files: AMB1,AMB2,AMB3
data=
346.4  509.60  113.81  22.33
347.9  536.51  114.21  21.29
349.5  577.20  110.66  19.17
351.1  620.88  116.90  18.83
352.6  679.94  121.44  17.86
354.2  723.22  124.35  17.19
355.7  777.89  132.46  17.03
357.3  842.60  133.15  15.80
358.8  838.80  137.47  16.39
360.4  904.00  139.76  15.46
361.9  943.76  141.62  15.01
363.5  997.20  138.50  13.89
365.1  1040.25  138.70  13.33
366.6  1087.54  143.16  13.16
368.2  1161.70  145.05  12.49
369.7  1204.79  146.71  12.18
371.3  1287.37  150.14  11.66
372.8  1354.56  151.39  11.18
374.4  1435.13  152.64  10.64
375.9  1463.02  158.00  10.80
377.4  1512.41  160.02  10.58
379.0  1578.52  160.82  10.19
380.5  1618.77  154.70  9.56
382.1  1669.58  159.96  9.58
383.6  1726.52  159.89  9.26
385.2  1809.50  158.40  8.75
386.7  1900.67  159.56  8.40
388.3  1991.93  163.77  8.22
389.8  2077.97  170.56  8.21
391.3  2163.95  177.50  8.20
392.9  2236.17  183.22  8.19
394.4  2293.88  194.67  8.49
395.9  2364.42  207.24  8.76
397.5  2493.56  217.91  8.74
399.0  2617.23  221.66  8.47
400.6  2691.33  223.00  8.29
402.1  2739.96  220.50  8.05
403.6  2797.88  221.85  7.93
405.1  2865.39  228.19  7.96
406.7  2979.20  238.34  8.00
408.2  3089.54  247.70  8.02
409.7  3183.04  255.36  8.02
411.3  3295.62  269.89  8.19
412.8  3391.47  280.61  8.27
414.3  3507.27  293.05  8.36
415.8  3622.50  306.33  8.46
417.4  3739.34  318.78  8.53
418.9  3830.42  332.95  8.69
420.4  3913.23  340.64  8.70
421.9  3978.48  343.96  8.65
423.5  4044.22  353.05  8.73
425.0  4110.68  362.60  8.82
426.5  4198.95  362.63  8.64
428.0  4314.36  372.46  8.63
429.5  4445.73  383.41  8.62
431.1  4599.50  394.48  8.58
432.6  4769.72  409.11  8.58
434.1  4937.63  419.91  8.50
435.6  5085.18  431.89  8.49
437.1  5233.80  448.24  8.56
438.6  5364.45  460.86  8.59
440.1  5501.44  477.92  8.69
441.6  5653.06  493.69  8.73
443.1  5799.60  513.54  8.85
444.7  5941.01  533.48  8.98
446.2  6051.88  552.07  9.12
447.7  6161.82  574.47  9.32
449.2  6292.08  595.58  9.47
450.7  6396.00  616.24  9.63
452.2  6529.70  635.61  9.73
453.7  6647.26  657.84  9.90
455.2  6815.62  677.07  9.93
456.7  7013.60  705.64  10.06
458.2  7232.90  731.16  10.11
459.7  7456.75  759.50  10.19
461.2  7667.16  783.66  10.22
462.7  7858.10  804.78  10.24
464.2  8041.02  825.94  10.27
465.7  8240.35  847.88  10.29
467.2  8402.63  865.74  10.30
468.7  8584.00  885.60  10.32
470.2  8698.25  905.77  10.41
471.7  8877.75  927.20  10.44
473.2  9159.71  955.56  10.43
474.6  9386.40  971.36  10.35
476.1  9450.96  980.57  10.38
477.6  9499.75  988.67  10.41
479.1  9557.87  998.74  10.45
480.6  9632.82  1007.81  10.46
482.1  9760.73  1023.90  10.49
483.6  9935.74  1046.53  10.53
485.1  10133.78  1071.81  10.58
486.6  10366.07  1108.00  10.69
488.0  10621.00  1145.52  10.79
489.5  10873.80  1189.29  10.94
491.0  11134.31  1238.62  11.12
492.5  11404.80  1292.54  11.33
494.0  11683.71  1353.78  11.59
495.4  11917.95  1420.32  11.92
496.9  12154.26  1489.20  12.25
498.4  12387.41  1565.00  12.63
499.9  12623.63  1652.01  13.09
501.4  12839.71  1739.18  13.55
502.8  13042.06  1837.97  14.09
504.3  13226.40  1939.68  14.67
505.8  13406.54  2046.07  15.26
507.2  13518.16  2156.15  15.95
508.7  13603.31  2262.87  16.63
510.2  13672.60  2374.46  17.37
511.6  13715.26  2489.21  18.15
513.1  13806.21  2612.51  18.92
514.6  13898.29  2744.18  19.74
516.0  13992.63  2877.67  20.57
517.5  14151.40  3024.96  21.38
519.0  14339.95  3184.64  22.21
520.5  14520.56  3343.85  23.03
521.9  14760.83  3511.81  23.79
523.4  15031.28  3685.09  24.52
524.8  15295.25  3860.64  25.24
526.3  15594.01  4032.25  25.86
527.8  15909.50  4208.24  26.45
529.2  16189.50  4363.21  26.95
530.7  16509.28  4521.25  27.39
532.1  16791.25  4665.87  27.79
533.6  17121.20  4810.41  28.10
535.0  17454.94  4953.80  28.38
536.5  17789.22  5081.99  28.57
538.0  18136.88  5211.13  28.73
539.4  18461.69  5329.37  28.87
540.9  18864.39  5462.76  28.96
542.3  19206.33  5578.07  29.04
543.8  19460.81  5671.33  29.14
545.2  19544.37  5714.31  29.24
546.6  19566.05  5736.24  29.32
548.1  19604.97  5760.81  29.38
549.5  19640.65  5781.53  29.44
551.0  19664.79  5794.99  29.47
552.4  19724.92  5814.02  29.48
553.9  19761.60  5817.98  29.44
555.3  19812.20  5818.18  29.37
556.8  19934.49  5832.38  29.26
558.2  20047.50  5838.30  29.12
559.6  20200.16  5842.80  28.92
561.1  20397.00  5854.55  28.70
562.5  20617.77  5866.22  28.45
564.0  20901.40  5887.96  28.17
565.4  21161.13  5895.41  27.86
566.8  21482.31  5909.06  27.51
568.3  21793.28  5912.39  27.13
569.7  22118.60  5914.33  26.74
571.1  22425.71  5908.20  26.35
572.6  22741.56  5891.62  25.91
574.0  23030.70  5875.54  25.51
575.4  23309.44  5862.15  25.15
576.9  23581.06  5845.22  24.79
578.3  23822.01  5823.92  24.45
579.7  24048.22  5806.40  24.14
581.1  24227.75  5782.55  23.87
582.6  24429.78  5762.51  23.59
584.0  24600.48  5742.37  23.34
585.4  24853.74  5742.44  23.10
586.8  25196.68  5765.81  22.88
588.3  25573.86  5794.15  22.66
589.7  25896.78  5823.17  22.49
591.1  26104.75  5826.59  22.32
592.5  26211.06  5810.70  22.17
594.0  26269.26  5791.83  22.05
595.4  26286.44  5765.08  21.93
596.8  26295.56  5737.45  21.82
598.2  26315.92  5711.91  21.71
599.6  26317.98  5681.46  21.59
601.0  26398.05  5665.65  21.46
602.4  26470.93  5641.65  21.31
603.9  26597.64  5625.95  21.15
605.3  26727.57  5604.45  20.97
606.7  26857.80  5578.08  20.77
608.1  27088.39  5561.03  20.53
609.5  27333.21  5545.08  20.29
610.9  27623.29  5537.89  20.05
612.3  27891.32  5519.61  19.79
613.7  28252.28  5515.21  19.52
615.1  28513.62  5485.75  19.24
616.5  28776.05  5463.85  18.99
617.9  29165.50  5471.58  18.76
619.3  29543.24  5485.46  18.57
620.7  29990.55  5517.92  18.40
622.1  30437.05  5547.88  18.23
623.5  30934.60  5587.15  18.06
624.9  31494.75  5647.01  17.93
626.3  31867.36  5681.50  17.83
627.7  31569.69  5610.99  17.77
629.1  31287.59  5544.77  17.72
630.5  31184.65  5517.02  17.69
631.9  31222.21  5509.26  17.65
633.3  31256.33  5488.21  17.56
634.7  31400.48  5464.52  17.40
636.1  31461.82  5383.55  17.11
637.5  31554.77  5326.40  16.88
638.9  31702.82  5278.81  16.65
640.2  31825.04  5225.41  16.42
641.6  31863.78  5155.49  16.18
643.0  31847.61  5068.98  15.92
644.4  31829.55  4987.35  15.67
645.8  31751.71  4884.73  15.38
647.2  31867.94  4820.12  15.13
648.5  31926.34  4748.29  14.87
649.9  31776.23  4652.91  14.64
651.3  31648.05  4575.72  14.46
652.7  31449.15  4490.04  14.28
654.1  31244.46  4356.17  13.94
655.5  31005.95  4221.95  13.62
656.8  30780.41  4082.13  13.26
658.2  30925.42  3991.83  12.91
659.6  31264.45  3929.33  12.57
660.9  31536.04  3852.33  12.22
662.3  31822.64  3774.09  11.86
663.7  32096.40  3698.80  11.52
665.0  32332.90  3619.94  11.20
666.4  32562.99  3545.19  10.89
667.8  32863.56  3497.88  10.64
669.1  33114.69  3454.69  10.43
670.5  33405.09  3428.13  10.26
671.9  33586.56  3410.34  10.15
673.2  33844.75  3417.06  10.10
674.6  34082.18  3430.48  10.07
676.0  34372.41  3465.77  10.08
677.3  34659.68  3517.92  10.15
678.7  34979.63  3598.05  10.29
680.0  35399.92  3715.72  10.50
681.4  35845.89  3867.62  10.79
682.8  36270.33  4066.49  11.21
684.1  36705.24  4324.63  11.78
685.5  37104.21  4631.70  12.48
686.8  37507.62  5016.76  13.38
688.2  37862.83  5447.78  14.39
689.5  38000.96  5912.66  15.56
690.9  38124.79  6434.90  16.88
692.2  38229.60  6994.48  18.30
693.6  38334.37  7586.91  19.79
694.9  38335.34  8185.53  21.35
696.2  38393.33  8807.16  22.94
697.6  38453.39  9432.52  24.53
698.9  38522.88  10059.46  26.11
700.3  38613.54  10679.29  27.66
701.6  38716.02  11292.49  29.17
703.0  38828.83  11892.93  30.63
704.3  38882.19  12448.57  32.02
705.6  38895.39  12979.45  33.37
707.0  38949.12  13498.83  34.66
708.3  38885.46  13962.88  35.91
709.6  38817.35  14409.76  37.12
711.0  38702.88  14824.16  38.30
712.3  38573.15  15212.96  39.44
713.6  38531.64  15612.97  40.52
714.9  38462.14  15977.36  41.54
716.3  38461.08  16372.70  42.57
717.6  38479.84  16749.24  43.53
718.9  38424.85  17073.02  44.43
720.2  38251.08  17334.79  45.32
721.6  38113.53  17592.36  46.16
722.9  37945.16  17813.92  46.95
724.2  37714.27  17994.49  47.71
725.5  37534.96  18189.05  48.46
726.8  37360.68  18359.14  49.14
728.1  37271.09  18547.42  49.76
729.5  37167.13  18713.15  50.35
730.8  37093.13  18884.01  50.91
732.1  36996.92  19023.47  51.42
733.4  36936.39  19166.43  51.89
734.7  36864.47  19285.83  52.32
736.0  36851.62  19426.07  52.71
737.3  36774.45  19519.68  53.08
738.6  36845.76  19684.21  53.42
739.9  37000.34  19882.14  53.74
741.2  37119.81  20046.57  54.01
742.5  37372.03  20264.25  54.22
743.8  37768.50  20573.25  54.47
745.1  38387.22  21001.08  54.71
746.4  39127.73  21475.39  54.89
747.7  39918.22  21949.93  54.99
749.0  40672.12  22419.87  55.12
750.3  41122.66  22680.56  55.15
751.6  41047.35  22674.24  55.24
752.9  40630.59  22494.98  55.36
754.2  40176.47  22273.75  55.44
755.4  39652.21  22032.50  55.56
756.7  39478.17  21975.40  55.66
758.0  39495.60  22028.55  55.77
759.3  39730.28  22208.22  55.90
760.6  40061.56  22429.79  55.99
761.9  40384.10  22635.54  56.05
763.1  40567.56  22760.94  56.11
764.4  40796.65  22894.46  56.12
765.7  40953.25  23003.07  56.17
767.0  41079.80  23093.72  56.22
768.2  41207.04  23172.35  56.23
769.5  41279.98  23220.77  56.25
770.8  41469.61  23338.79  56.28
772.0  41501.32  23365.80  56.30
773.3  41583.65  23413.16  56.30
774.6  41708.58  23481.48  56.30
775.8  41815.15  23535.29  56.28
777.1  41846.51  23556.24  56.29
778.4  41799.94  23528.84  56.29
779.6  41775.90  23530.74  56.33
780.9  41704.00  23484.80  56.31
782.1  41523.21  23407.65  56.37
783.4  41558.40  23412.48  56.34
784.6  41567.36  23436.14  56.38
785.9  41861.56  23602.32  56.38
787.1  42409.87  23936.07  56.44
788.4  42854.47  24187.46  56.44
789.6  42849.18  24130.14  56.31
790.9  42483.96  23868.30  56.18
792.1  42011.92  23608.79  56.20
793.4  41570.15  23383.57  56.25
794.6  41283.15  23211.51  56.23
795.8  41024.39  23066.85  56.23
797.1  40758.68  22922.58  56.24
798.3  40551.64  22827.26  56.29
799.5  40444.72  22758.43  56.27
800.8  40323.21  22695.32  56.28
802.0  40187.32  22627.12  56.30
803.2  40033.64  22543.35  56.31
804.5  39942.72  22494.92  56.32
805.7  39829.66  22421.35  56.29
806.9  39715.93  22358.33  56.30
808.1  39632.97  22313.57  56.30
809.4  39553.39  22286.39  56.35
810.6  39489.45  22239.19  56.32
811.8  39474.39  22243.08  56.35
813.0  39504.71  22268.97  56.37
814.2  39525.61  22299.31  56.42
815.4  39644.33  22367.57  56.42
816.6  39709.73  22397.01  56.40
817.9  39791.57  22428.67  56.37
819.1  39719.87  22395.45  56.38
820.3  39621.11  22325.04  56.35
821.5  39546.25  22279.89  56.34
822.7  39480.04  22257.70  56.38
823.9  39499.25  22269.23  56.38
825.1  39541.96  22275.77  56.33
826.3  39583.35  22317.60  56.38
827.5  39640.56  22346.41  56.37
828.7  39708.48  22377.44  56.35
829.9  39767.03  22429.03  56.40
831.0  39870.82  22479.96  56.38
832.2  39993.87  22549.79  56.38
833.4  40076.64  22595.64  56.38
834.6  40148.44  22659.38  56.44
835.8  40238.10  22707.72  56.43
837.0  40328.28  22774.03  56.47
838.1  40500.72  22871.56  56.47
839.3  40601.19  22931.85  56.48
840.5  40716.87  22998.78  56.48
841.7  40854.11  23089.55  56.52
842.9  40980.73  23179.97  56.56
844.0  41100.82  23260.04  56.59
845.2  41245.09  23346.81  56.61
846.4  41368.25  23430.55  56.64
847.5  41564.18  23561.09  56.69
848.7  41743.64  23662.41  56.69
849.9  41936.76  23760.72  56.66
851.0  42020.98  23799.27  56.64
852.2  42107.61  23830.94  56.60
853.3  42066.96  23817.54  56.62
854.5  42098.11  23819.08  56.58
855.6  42095.43  23820.11  56.59
856.8  42111.00  23839.20  56.61
857.9  42111.88  23836.62  56.60
859.1  42240.60  23912.16  56.61
860.2  42245.56  23920.94  56.62
861.4  42273.83  23936.71  56.62
862.5  42309.54  23961.63  56.63
863.7  42384.63  24004.41  56.63
864.8  42387.10  24016.25  56.66
865.9  42333.82  23986.02  56.66
867.1  42372.33  24009.16  56.66
868.2  42368.54  24001.89  56.65
869.3  42393.50  23995.47  56.60
870.5  42342.80  23968.50  56.61
871.6  42318.48  23957.49  56.61
872.7  42385.23  24004.30  56.63
873.9  42404.90  24006.77  56.61
875.0  42391.36  23983.58  56.58
876.1  42363.75  23973.26  56.59
877.2  42397.32  23998.78  56.60
878.3  42381.77  23974.65  56.57
879.4  42397.70  24001.82  56.61
880.5  42451.56  24003.17  56.54
881.7  42410.55  23988.99  56.56
882.8  42454.72  23996.80  56.52
883.9  42482.63  24023.58  56.55
885.0  42446.04  23969.95  56.47
886.1  42420.10  23961.41  56.49
887.2  42295.80  23856.87  56.40
888.3  42201.80  23801.35  56.40
889.4  42117.30  23736.60  56.36
890.5  42026.34  23685.55  56.36
891.6  41981.69  23632.93  56.29
892.7  41962.31  23638.10  56.33
893.8  41981.79  23641.59  56.31
894.9  41952.35  23630.87  56.33
896.0  41968.71  23637.57  56.32
897.0  41952.48  23622.89  56.31
898.1  41951.64  23641.02  56.35
899.2  41983.30  23620.24  56.26
900.3  41907.57  23581.42  56.27
901.4  41820.39  23542.36  56.29
902.4  41828.99  23552.52  56.31
903.5  41775.96  23511.41  56.28
904.6  41798.96  23509.77  56.24
905.7  41805.42  23519.26  56.26
906.7  41815.90  23499.12  56.20
907.8  41839.20  23534.55  56.25
908.9  41746.38  23489.14  56.27
909.9  41734.69  23485.97  56.27
911.0  41681.88  23437.31  56.23
912.1  41602.05  23388.94  56.22
913.1  41535.52  23362.91  56.25
914.2  41457.24  23289.92  56.18
915.2  41368.59  23288.69  56.30
916.3  41436.15  23286.52  56.20
917.3  41410.15  23262.69  56.18
918.4  41310.50  23216.64  56.20
919.4  41328.17  23194.87  56.12
920.5  41309.67  23187.41  56.13
921.5  41323.66  23215.79  56.18
922.6  41255.80  23149.03  56.11
923.6  41303.54  23173.69  56.11
924.7  41344.50  23184.17  56.08
925.7  41333.16  23154.97  56.02
926.7  41356.90  23208.13  56.12
927.8  41415.30  23191.98  56.00
928.8  41570.85  23263.27  55.96
929.9  41658.93  23318.45  55.97
930.9  41879.39  23395.22  55.86
931.9  42070.56  23506.31  55.87
932.9  42412.10  23665.16  55.80
934.0  42452.50  23691.22  55.81
935.0  42440.57  23709.53  55.87
936.0  42488.02  23686.84  55.75
937.0  42429.47  23682.15  55.82
938.1  42380.86  23659.06  55.82
939.1  42337.65  23653.65  55.87
940.1  42429.30  23664.91  55.77
941.1  42615.86  23774.99  55.79
942.1  42903.92  23901.89  55.71
943.1  43057.09  23978.38  55.69
944.1  43342.63  24110.39  55.63
945.2  43356.60  24142.55  55.68
946.2  43482.48  24163.38  55.57
947.2  43549.00  24201.62  55.57
948.2  43743.16  24265.19  55.47
949.2  43840.88  24306.32  55.44
950.2  43906.25  24330.85  55.42
951.2  44010.96  24378.81  55.39
952.2  44061.91  24413.95  55.41
953.2  44318.14  24492.04  55.26
954.2  44380.80  24552.15  55.32
955.2  44428.35  24518.55  55.19
956.2  44460.20  24534.52  55.18
957.2  44542.35  24558.43  55.14
958.2  44649.94  24593.89  55.08
959.2  44705.25  24648.66  55.14
960.1  44813.66  24672.19  55.06
961.1  44928.76  24714.01  55.01
962.1  44958.75  24704.75  54.95
963.1  44986.01  24727.10  54.97
964.1  45106.16  24806.21  55.00
965.1  45270.70  24860.52  54.92
966.1  45207.41  24902.76  55.09
967.0  45355.66  24920.66  54.94
968.0  45441.48  24950.55  54.91
969.0  45453.60  25020.88  55.05
970.0  45557.64  25050.82  54.99
971.0  45615.57  25072.61  54.97
971.9  45699.86  25119.57  54.97
972.9  45781.93  25125.15  54.88
973.9  45829.88  25171.77  54.92
974.9  45973.78  25183.68  54.78
975.8  45979.65  25241.50  54.90
976.8  46106.16  25193.90  54.64
977.8  46097.80  25248.13  54.77
978.8  46103.70  25328.66  54.94
979.7  46387.55  25336.53  54.62
980.7  46405.76  25375.37  54.68
981.7  46694.84  25477.82  54.56
982.6  46857.76  25650.14  54.74
983.6  47433.79  25905.46  54.61
984.6  47818.98  26026.73  54.43
985.5  48063.24  26403.84  54.94
986.5  48770.77  26727.75  54.80
987.5  50043.63  27178.76  54.31
988.4  50895.90  27827.36  54.68
989.4  52431.75  28146.70  53.68
990.4  53425.02  28863.14  54.03
991.3  55387.31  29426.28  53.13
992.3  55950.90  30127.40  53.85
993.2  58118.31  30517.72  52.51
994.2  59457.94  30935.00  52.03
995.2  60710.63  31707.55  52.23
996.1  61737.77  32030.29  51.88
997.1  61885.85  32571.50  52.63
998.0  61668.00  31701.92  51.41
999.0  61787.86  31749.08  51.38
1000.0  62252.49  32251.29  51.81
1000.9  62564.91  31426.74  50.23
1001.9  61626.12  31732.05  51.49
1002.8  61885.09  31109.80  50.27
1003.8  61970.58  30839.82  49.77
1004.8  62064.96  30667.39  49.41
961.5  55881.62  27650.77  49.48
965.5  54589.44  27323.15  50.05
969.5  52393.79  26680.23  50.92
973.4  50126.74  25889.80  51.65
977.4  48345.52  25191.65  52.11
981.4  47464.01  24991.46  52.65
985.3  47176.98  25026.44  53.05
989.3  47304.75  25174.05  53.22
993.3  47508.66  25340.67  53.34
997.2  47541.75  25382.93  53.39
1001.2  47520.33  25391.95  53.43
1005.2  47455.76  25386.33  53.49
1009.1  47529.68  25453.78  53.55
1013.1  47663.39  25586.32  53.68
1017.1  47785.75  25694.62  53.77
1021.0  47816.50  25736.13  53.82
1025.0  47819.30  25759.15  53.87
1029.0  47652.00  25692.37  53.92
1032.9  47495.63  25635.52  53.97
1036.9  47497.16  25661.97  54.03
1040.9  47608.97  25744.11  54.07
1044.8  47827.54  25880.57  54.11
1048.8  48004.98  26004.13  54.17
1052.7  48133.54  26097.25  54.22
1056.7  48188.20  26131.58  54.23
1060.7  48194.60  26142.30  54.24
1064.6  48198.22  26160.52  54.28
1068.6  48113.17  26119.71  54.29
1072.5  48026.55  26069.42  54.28
1076.5  47975.49  26047.95  54.29
1080.4  47966.69  26039.64  54.29
1084.4  48069.59  26068.25  54.23
1088.3  48170.15  26118.46  54.22
1092.3  48152.58  26096.41  54.20
1096.2  48142.77  26075.60  54.16
1100.2  48183.64  26078.27  54.12
1104.1  48079.94  25999.63  54.08
1108.1  48035.13  25941.55  54.01
1112.0  47943.86  25849.61  53.92
1116.0  47742.57  25697.17  53.82
1119.9  47581.47  25555.54  53.71
1123.9  47666.30  25529.45  53.56
1127.8  47639.04  25438.72  53.40
1131.8  47617.38  25318.72  53.17
1135.7  47659.94  25191.83  52.86
1139.6  47675.62  25009.23  52.46
1143.6  47638.82  24782.14  52.02
1147.5  47616.88  24559.09  51.58
1151.4  47500.80  24305.81  51.17
1155.4  47513.75  24184.55  50.90
1159.3  47522.52  24120.01  50.75
1163.2  47363.89  23986.75  50.64
1167.2  47347.50  23948.10  50.58
1171.1  47369.57  23931.96  50.52
1175.0  47314.40  23870.58  50.45
1179.0  47268.08  23839.99  50.44
1182.9  47358.68  23866.79  50.40
1186.8  47350.70  23842.05  50.35
1190.7  47139.70  23712.57  50.30
1194.7  46883.87  23565.95  50.26
1198.6  46652.76  23449.97  50.26
1202.5  46480.48  23373.22  50.29
1206.4  46340.80  23309.64  50.30
1210.3  46236.01  23269.84  50.33
1214.2  46114.66  23239.20  50.39
1218.2  45952.68  23177.26  50.44
1222.1  45800.88  23123.68  50.49
1226.0  45686.61  23101.39  50.56
1229.9  45598.02  23077.26  50.61
1233.8  45484.04  23037.90  50.65
1237.7  45416.66  23017.45  50.68
1241.6  45332.53  22988.45  50.71
1245.5  45166.97  22919.32  50.74
1249.4  45023.84  22852.85  50.76
1253.3  44894.25  22798.95  50.78
1257.2  44816.00  22760.18  50.79
1261.1  44716.86  22699.12  50.76
1265.0  44587.73  22627.50  50.75
1268.9  44400.64  22517.83  50.72
1272.8  44460.00  22523.55  50.66
1276.7  44653.74  22593.44  50.60
1280.6  44733.81  22606.04  50.53
1284.5  44649.07  22523.76  50.45
1288.4  44631.63  22460.94  50.33
1292.3  44511.50  22341.92  50.19
1296.2  44360.33  22201.43  50.05
1300.1  44197.71  22040.83  49.87
1303.9  43963.66  21831.18  49.66
1307.8  43715.49  21605.16  49.42
1311.7  43464.03  21355.89  49.13
1315.6  43214.30  21098.69  48.82
1319.5  42962.15  20813.86  48.45
1323.3  42734.84  20522.29  48.02
1327.2  42525.95  20235.47  47.58
1331.1  42285.13  19930.97  47.13
1335.0  41985.32  19582.51  46.64
1338.8  41775.29  19267.68  46.12
1342.7  41609.18  18965.82  45.58
1346.5  41242.98  18554.89  44.99
1350.4  40931.78  18155.43  44.36
1354.3  40517.39  17703.32  43.69
1358.1  40047.65  17256.74  43.09
1362.0  39764.09  16911.92  42.53
1365.8  39670.89  16657.36  41.99
1369.7  39786.92  16475.27  41.41
1373.5  39741.56  16129.35  40.59
1377.4  39487.75  15556.79  39.40
1381.2  39276.49  14876.68  37.88
1385.1  39242.56  14188.96  36.16
1389.0  39129.70  13427.28  34.31
1392.8  38925.66  12576.95  32.31
1396.6  38773.68  11729.08  30.25
1400.5  38560.99  10929.34  28.34
1404.3  38397.74  10251.99  26.70
1408.2  38363.03  9714.54  25.32
1412.0  38325.01  9273.41  24.20
1415.8  38359.09  8961.60  23.36
1419.6  38319.36  8711.35  22.73
1423.5  38299.37  8512.54  22.23
1427.3  38266.05  8363.03  21.85
1431.1  38248.58  8264.60  21.61
1434.9  38159.15  8179.88  21.44
1438.8  38104.90  8130.28  21.34
1442.6  38084.31  8105.70  21.28
1446.4  37958.74  8067.50  21.25
1450.2  37871.04  8061.39  21.29
1454.0  37772.76  8062.08  21.34
1457.8  37752.26  8091.88  21.43
1461.6  37732.17  8143.31  21.58
1465.4  37609.21  8194.16  21.79
1469.2  37426.03  8260.53  22.07
1473.0  37290.43  8361.14  22.42
1476.8  37245.30  8509.85  22.85
1480.7  37186.44  8671.60  23.32
1484.4  37061.40  8825.12  23.81
1488.2  36961.08  8998.40  24.35
1492.0  36836.53  9171.80  24.90
1495.8  36720.78  9342.67  25.44
1499.6  36605.30  9498.87  25.95
1503.4  36479.87  9635.53  26.41
1507.2  36356.05  9766.16  26.86
1510.9  36204.04  9887.46  27.31
1514.7  36047.88  10002.72  27.75
1518.5  35919.58  10135.51  28.22
1522.3  35781.38  10264.09  28.69
1526.0  35674.52  10406.56  29.17
1529.8  35609.17  10557.48  29.65
1533.6  35484.33  10668.16  30.06
1537.3  35352.32  10777.29  30.49
1541.1  35225.58  10888.79  30.91
1544.8  35097.60  10995.20  31.33
1548.6  34949.35  11093.66  31.74
1552.4  34850.72  11185.07  32.09
1556.1  34790.76  11278.80  32.42
1559.9  34705.82  11361.13  32.74
1563.6  34578.39  11431.36  33.06
1567.3  34459.02  11506.26  33.39
1571.1  34243.92  11541.20  33.70
1574.8  34100.68  11594.45  34.00
1578.6  34000.34  11651.85  34.27
1582.3  33854.52  11686.19  34.52
1586.0  33716.51  11717.24  34.75
1589.8  33582.95  11742.89  34.97
1593.5  33431.04  11761.79  35.18
1597.2  33294.67  11784.91  35.40
1600.9  33154.19  11798.73  35.59
1604.7  33000.40  11804.34  35.77
1608.4  32856.34  11820.68  35.98
1612.1  32695.22  11817.95  36.15
1615.8  32545.96  11814.26  36.30
1619.5  32465.11  11838.72  36.47
1623.2  32316.22  11831.82  36.61
1626.9  32130.25  11804.83  36.74
1630.6  31953.68  11781.37  36.87
1634.3  31816.04  11769.21  36.99
1638.0  31668.49  11740.77  37.07
1641.7  31487.82  11696.14  37.14
1645.4  31299.16  11642.82  37.20
1649.1  31105.38  11575.63  37.21
1652.8  30949.76  11519.53  37.22
1656.4  30780.36  11457.93  37.22
1660.1  30613.88  11401.37  37.24
1663.8  30416.03  11339.22  37.28
1667.5  30257.50  11287.80  37.31
1671.1  30134.40  11235.38  37.28
1674.8  29937.06  11161.07  37.28
1678.5  29873.87  11135.81  37.28
1682.1  29892.23  11125.21  37.22
1685.8  29901.92  11108.51  37.15
1689.5  29795.07  11044.66  37.07
1693.1  29653.44  10960.46  36.96
1696.8  29511.75  10871.96  36.84
1700.4  29358.15  10780.93  36.72
1704.0  29237.42  10693.83  36.58
1707.7  28983.16  10556.55  36.42
1711.3  28689.26  10407.73  36.28
1715.0  28479.20  10286.88  36.12
1718.6  28311.14  10175.81  35.94
1722.2  28171.19  10078.29  35.78
1725.9  28024.58  9980.17  35.61
1729.5  27888.80  9880.44  35.43
1733.1  27770.82  9790.32  35.25
1736.7  27655.67  9699.96  35.07
1740.3  27487.42  9587.99  34.88
1744.0  27395.86  9496.95  34.67
1747.5  27255.01  9381.49  34.42
1751.2  27041.09  9238.26  34.16
1754.8  26881.34  9111.50  33.90
1758.4  26750.86  8998.80  33.64
1762.0  26572.85  8874.34  33.40
1765.5  26446.23  8770.02  33.16
1769.1  26402.40  8701.60  32.96
1772.7  26328.38  8631.67  32.78
1776.3  26208.92  8546.30  32.61
1779.9  26081.92  8464.30  32.45
1783.5  26027.60  8408.85  32.31
1787.0  25897.14  8341.66  32.21
1790.6  25747.79  8269.56  32.12
1794.2  25651.68  8219.45  32.04
1797.8  25552.23  8174.42  31.99
1801.3  25471.95  8126.34  31.90
1804.9  25318.13  8065.75  31.86
1808.4  25235.40  8026.58  31.81
1812.0  25102.89  7966.72  31.74
1815.5  24947.72  7897.98  31.66
1819.1  24745.29  7815.50  31.58
1822.6  24588.72  7751.80  31.53
1826.2  24468.62  7692.32  31.44
1829.7  24298.19  7606.07  31.30
1833.2  24066.25  7496.26  31.15
1836.8  23846.10  7390.27  30.99
1840.3  23701.28  7308.03  30.83
1843.8  23605.26  7245.30  30.69
1847.3  23552.23  7197.84  30.56
1850.8  23482.37  7120.51  30.32
1854.3  23328.90  6985.64  29.94
1857.8  23249.20  6817.20  29.32
1861.3  23245.10  6597.60  28.38
1864.8  23154.55  6290.13  27.17
1868.3  22923.75  5866.21  25.59
1871.8  22725.12  5422.08  23.86
1875.3  22663.55  5017.44  22.14
1878.8  22668.35  4635.24  20.45
1882.3  22613.87  4242.88  18.76
1885.8  22446.65  3833.46  17.08
1889.3  22245.45  3480.98  15.65
1892.7  22073.02  3208.10  14.53
1896.2  21956.57  2993.79  13.64
1899.7  21800.31  2872.49  13.18
1903.1  21719.54  2867.48  13.20
1906.6  21807.87  2984.74  13.69
1910.0  22098.88  3293.98  14.91
1913.5  22634.73  3749.25  16.56
1917.0  23151.98  4406.38  19.03
1920.4  23436.08  5053.93  21.56
1923.8  23677.97  5508.60  23.26
1871.2  20787.15  4239.08  20.39
1873.9  20907.54  4109.20  19.65
1876.7  21048.38  3884.17  18.45
1879.5  21252.88  3606.78  16.97
1882.3  20993.42  3301.93  15.73
1885.1  20851.78  2916.43  13.99
1887.8  20921.79  2619.69  12.52
1890.6  20723.54  2396.17  11.56
1893.4  20650.67  2178.00  10.55
1896.2  20581.86  1959.85  9.52
1898.9  20516.13  1839.22  8.96
1901.7  20380.18  1702.76  8.35
1904.5  20546.36  1602.87  7.80
1907.2  20463.00  1542.17  7.54
1910.0  20358.58  1497.31  7.35
1912.7  20364.96  1450.54  7.12
1915.5  20273.08  1421.29  7.01
1918.2  20210.43  1396.74  6.91
1921.0  20079.87  1370.75  6.83
1923.7  20126.73  1397.37  6.94
1926.5  20096.89  1397.11  6.95
1929.2  20080.15  1382.08  6.88
1932.0  20066.00  1411.47  7.03
1934.7  20016.92  1423.68  7.11
1937.4  19925.11  1421.60  7.13
1940.2  19881.39  1451.64  7.30
1942.9  19959.98  1467.69  7.35
1945.6  19965.22  1473.76  7.38
1948.3  19894.11  1504.17  7.56
1951.1  19862.99  1543.13  7.77
1953.8  19866.00  1563.00  7.87
1956.5  19752.03  1593.34  8.07
1959.2  19805.76  1633.54  8.25
1961.9  19837.86  1667.81  8.41
1964.6  19745.08  1710.63  8.66
1967.3  19784.70  1738.47  8.79
1970.0  19621.84  1749.36  8.92
1972.8  19538.55  1795.40  9.19
1975.5  19602.81  1845.75  9.42
1978.2  19540.64  1870.75  9.57
1980.9  19419.73  1909.33  9.83
1983.5  19352.05  1949.56  10.07
1986.2  19366.05  1983.65  10.24
1988.9  19348.59  2037.97  10.53
1991.6  19202.00  2060.50  10.73
1994.3  19065.89  2073.83  10.88
1997.0  19096.32  2133.67  11.17
1999.7  19065.00  2170.98  11.39
2002.3  19034.90  2210.24  11.61
2005.0  18965.86  2256.27  11.90
2007.7  18877.00  2282.82  12.09
2010.4  18811.60  2335.39  12.41
2013.0  18774.16  2370.84  12.63
2015.7  18678.28  2372.79  12.70
2018.4  18548.96  2402.66  12.95
2021.0  18504.50  2446.11  13.22
2023.7  18401.60  2476.16  13.46
2026.4  18333.68  2512.47  13.70
2029.0  18267.40  2541.75  13.91
2031.7  18144.97  2549.08  14.05
2034.3  18142.15  2588.52  14.27
2037.0  18035.71  2606.69  14.45
2039.6  17974.39  2618.27  14.57
2042.3  17908.74  2650.13  14.80
2044.9  17825.78  2677.84  15.02
2047.5  17820.17  2697.48  15.14
2050.2  17715.60  2700.13  15.24
2052.8  17679.20  2741.20  15.51
2055.4  17538.43  2749.37  15.68
2058.1  17416.00  2744.93  15.76
2060.7  17404.47  2770.78  15.92
2063.3  17299.63  2778.31  16.06
2065.9  17230.17  2797.25  16.23
2068.6  17165.96  2821.45  16.44
2071.2  17119.44  2844.87  16.62
2073.8  17041.85  2848.71  16.72
2076.4  16999.98  2867.48  16.87
2079.0  17011.74  2898.98  17.04
2081.6  16984.09  2917.43  17.18
2084.2  16930.00  2944.88  17.39
2086.8  16834.24  2944.30  17.49
2089.4  16742.01  2952.97  17.64
2092.1  16637.33  2962.72  17.81
2094.7  16574.28  2971.90  17.93
2097.2  16549.50  2992.00  18.08
2099.8  16541.98  3009.88  18.20
2102.4  16400.35  2999.72  18.29
2105.0  16267.80  3002.00  18.45
2107.6  16238.35  3025.88  18.63
2110.2  16217.39  3041.53  18.75
2112.8  16200.74  3058.04  18.88
2115.3  16182.65  3082.00  19.05
2117.9  16188.40  3096.08  19.13
2120.5  16181.17  3098.65  19.15
2123.1  16113.83  3104.40  19.27
2125.6  16056.05  3111.84  19.38
2128.2  15953.26  3102.27  19.45
2130.8  15859.35  3114.15  19.64
2133.3  15825.33  3119.11  19.71
2135.9  15723.21  3104.44  19.74
2138.4  15584.92  3093.02  19.85
2141.0  15487.96  3079.37  19.88
2143.6  15482.13  3100.73  20.03
2146.1  15358.67  3091.13  20.13
2148.7  15182.57  3050.22  20.09
2151.2  15188.80  3055.56  20.12
2153.8  15199.37  3075.78  20.24
2156.3  15064.95  3060.64  20.32
2158.8  14994.07  3050.79  20.35
2161.4  14983.43  3059.39  20.42
2163.9  14894.98  3044.65  20.44
2166.4  14806.99  3019.74  20.39
2169.0  14777.42  3028.61  20.49
2171.5  14688.72  3015.80  20.53
2174.0  14586.43  2997.81  20.55
2176.5  14576.25  3013.92  20.68
2179.1  14537.32  3006.65  20.68
2181.6  14435.75  2981.85  20.66
2184.1  14405.16  2983.49  20.71
2186.6  14458.30  2992.92  20.70
2189.1  14358.33  2972.46  20.70
2191.6  14308.00  2963.95  20.72
2194.1  14339.64  2974.00  20.74
2196.6  14340.73  2987.94  20.84
2199.2  14399.84  3003.46  20.86
2201.7  14323.09  2989.50  20.87
2204.1  14264.18  2971.10  20.83
2206.6  14278.44  2986.49  20.92
2209.1  14246.74  2986.37  20.96
2211.6  14236.93  2973.01  20.88
2214.1  14172.61  2981.77  21.04
2216.6  14103.21  2970.30  21.06
2219.1  14137.40  2957.64  20.92
2221.6  14080.86  2953.97  20.98
2224.0  14024.61  2912.11  20.76
2226.5  13983.38  2901.95  20.75
2229.0  13981.89  2932.40  20.97
2231.5  13918.22  2882.71  20.71
2233.9  13896.33  2864.45  20.61
2236.4  13868.98  2871.84  20.71
2238.9  13826.00  2839.09  20.53
2241.3  13828.76  2811.36  20.33
2243.8  13758.80  2798.40  20.34
2246.2  13610.98  2745.97  20.17
2248.7  13571.61  2711.24  19.98
2251.2  13563.12  2709.55  19.98
2253.6  13482.24  2705.92  20.07
2256.1  13474.56  2671.36  19.83
2258.5  13495.78  2646.91  19.61
2260.9  13407.16  2609.08  19.46
2263.4  13372.75  2581.92  19.31
2265.8  13367.17  2582.40  19.32
2268.3  13288.30  2542.47  19.13
2270.7  13342.05  2516.67  18.86
2273.1  13272.94  2505.54  18.88
2275.6  13194.24  2496.00  18.92
2278.0  13232.60  2459.73  18.59
2280.4  13249.81  2453.95  18.52
2282.8  13117.21  2408.18  18.36
2285.3  13103.68  2384.84  18.20
2287.7  13191.09  2404.18  18.23
2290.1  13097.39  2365.41  18.06
2292.5  13047.88  2325.45  17.82
2294.9  13056.31  2323.58  17.80
2297.3  12972.40  2283.36  17.60
2299.7  12875.52  2240.02  17.40
2302.1  12826.01  2220.82  17.31
2304.5  12696.88  2169.07  17.08
2306.9  12602.80  2137.71  16.96
2309.3  12519.08  2121.13  16.94
2311.7  12473.65  2090.72  16.76
2314.1  12315.17  2045.31  16.61
2316.5  12229.76  2036.98  16.66
2318.9  12290.12  2032.59  16.54
2321.3  12265.32  2016.49  16.44
2323.7  12235.57  2017.96  16.49
2326.1  12214.93  2000.22  16.38
2328.4  12270.09  1973.14  16.08
2330.8  12319.08  1989.10  16.15
2333.2  12235.57  1956.21  15.99
2335.6  12168.54  1918.07  15.76
2337.9  12202.83  1928.08  15.80
2340.3  12141.58  1899.05  15.64
2342.7  12039.09  1861.93  15.47
2345.0  12013.82  1840.22  15.32
2347.4  11993.50  1810.50  15.10
2349.7  11798.34  1772.74  15.03
2352.1  11775.76  1753.93  14.89
2354.4  11820.42  1732.23  14.65
2356.8  11728.38  1718.03  14.65
2359.2  11704.33  1723.22  14.72
2361.5  11645.74  1690.06  14.51
2363.8  11633.53  1657.12  14.24
2366.2  11660.03  1647.64  14.13
2368.5  11627.85  1621.28  13.94
2370.9  11603.83  1604.43  13.83
2373.2  11533.95  1611.31  13.97
2375.5  11398.48  1573.19  13.80
2377.9  11373.04  1530.08  13.45
2380.2  11408.35  1527.22  13.39
2382.5  11308.30  1507.16  13.33
2384.8  11261.28  1487.89  13.21
2387.2  11252.00  1486.20  13.21
2389.5  11242.29  1447.98  12.88
2391.8  11232.13  1429.17  12.72
2394.1  11132.13  1423.50  12.79
2396.4  11089.46  1395.05  12.58
2398.7  11160.99  1378.68  12.35
2401.0  11096.58  1359.88  12.25
2403.3  10926.12  1326.34  12.14
2405.6  10921.36  1287.90  11.79
2407.9  10891.74  1297.59  11.91
2410.2  10793.71  1270.04  11.77
2412.5  10752.81  1246.70  11.59
2414.8  10737.29  1251.23  11.65
2417.1  10694.97  1216.44  11.37
2419.4  10638.82  1184.41  11.13
2421.7  10597.44  1175.74  11.09
2424.0  10571.95  1146.48  10.84
2426.2  10576.95  1128.85  10.67
2428.5  10508.39  1144.76  10.89
2430.8  10485.80  1106.35  10.55
2433.1  10443.79  1058.39  10.13
2435.4  10361.94  1057.46  10.21
2437.6  10328.37  1059.32  10.26
2439.9  10224.92  1014.45  9.92
2442.2  10193.49  1001.15  9.82
2444.4  10223.13  974.45  9.53
2446.7  10173.28  955.81  9.40
2448.9  10197.11  973.13  9.54
2451.2  10173.72  943.67  9.28
2453.4  10028.37  924.09  9.21
2455.7  9998.26  928.47  9.29
2457.9  9908.42  907.61  9.16
2460.2  9870.17  875.43  8.87
2462.4  9896.64  871.52  8.81
2464.7  9834.69  870.55  8.85
2466.9  9751.98  832.46  8.54
2469.2  9722.50  823.17  8.47
2471.4  9624.29  829.38  8.62
2473.6  9553.77  805.63  8.43
2475.9  9536.85  810.54  8.50
2478.1  9427.70  771.98  8.19
2480.3  9377.37  733.30  7.82
2482.5  9321.43  743.43  7.98
2484.8  9240.44  711.18  7.70
2487.0  9258.33  706.10  7.63
2489.2  9302.30  766.40  8.24
2491.4  9183.58  755.70  8.23
2493.6  9147.34  684.55  7.48
2495.8  9177.35  686.26  7.48
2498.0  9103.79  697.17  7.66
2500.2  9132.70  676.81  7.41
2502.4  9403.92  710.40  7.55
2504.6  9512.07  694.86  7.31
2506.8  9585.80  659.18  6.88
