/*** Spectra Vista SIG Data ***/
name= AMF.sig
comm= Averaged Ref/Tar of files: AMF1,AMF2,AMF3
data=
346.4  509.60  113.81  22.33
347.9  536.51  112.95  21.05
349.5  577.20  110.66  19.17
351.1  620.88  116.48  18.76
352.6  679.94  125.24  18.42
354.2  723.22  126.54  17.50
355.7  777.89  130.21  16.74
357.3  842.60  132.23  15.69
358.8  838.80  139.80  16.67
360.4  904.00  144.92  16.03
361.9  943.76  145.80  15.45
363.5  997.20  144.51  14.49
365.1  1040.25  147.48  14.18
366.6  1087.54  150.53  13.84
368.2  1161.70  149.97  12.91
369.7  1204.79  151.50  12.57
371.3  1287.37  152.34  11.83
372.8  1354.56  160.69  11.86
374.4  1435.13  160.20  11.16
375.9  1463.02  168.15  11.49
377.4  1512.41  163.06  10.78
379.0  1578.52  165.49  10.48
380.5  1618.77  166.18  10.27
382.1  1669.58  165.88  9.94
383.6  1726.52  165.56  9.59
385.2  1809.50  166.47  9.20
386.7  1900.67  172.20  9.06
388.3  1991.93  169.94  8.53
389.8  2077.97  175.68  8.45
391.3  2163.95  187.15  8.65
392.9  2236.17  188.91  8.45
394.4  2293.88  194.27  8.47
395.9  2364.42  202.22  8.55
397.5  2493.56  214.47  8.60
399.0  2617.23  213.42  8.15
400.6  2691.33  207.16  7.70
402.1  2739.96  203.65  7.43
403.6  2797.88  200.75  7.18
405.1  2865.39  203.52  7.10
406.7  2979.20  209.37  7.03
408.2  3089.54  214.43  6.94
409.7  3183.04  221.01  6.94
411.3  3295.62  228.89  6.95
412.8  3391.47  235.74  6.95
414.3  3507.27  243.77  6.95
415.8  3622.50  254.33  7.02
417.4  3739.34  265.48  7.10
418.9  3830.42  273.24  7.13
420.4  3913.23  273.18  6.98
421.9  3978.48  275.56  6.93
423.5  4044.22  278.33  6.88
425.0  4110.68  280.49  6.82
426.5  4198.95  286.95  6.83
428.0  4314.36  292.55  6.78
429.5  4445.73  298.09  6.71
431.1  4599.50  304.96  6.63
432.6  4769.72  314.78  6.60
434.1  4937.63  324.68  6.58
435.6  5085.18  331.01  6.51
437.1  5233.80  339.04  6.48
438.6  5364.45  344.53  6.42
440.1  5501.44  357.12  6.49
441.6  5653.06  366.86  6.49
443.1  5799.60  377.46  6.51
444.7  5941.01  386.34  6.50
446.2  6051.88  395.46  6.53
447.7  6161.82  409.06  6.64
449.2  6292.08  418.18  6.65
450.7  6396.00  425.70  6.66
452.2  6529.70  429.16  6.57
453.7  6647.26  436.82  6.57
455.2  6815.62  446.83  6.56
456.7  7013.60  458.77  6.54
458.2  7232.90  473.46  6.55
459.7  7456.75  486.97  6.53
461.2  7667.16  503.38  6.57
462.7  7858.10  514.81  6.55
464.2  8041.02  528.75  6.58
465.7  8240.35  540.97  6.56
467.2  8402.63  555.68  6.61
468.7  8584.00  568.27  6.62
470.2  8698.25  579.17  6.66
471.7  8877.75  592.80  6.68
473.2  9159.71  610.31  6.66
474.6  9386.40  619.36  6.60
476.1  9450.96  621.87  6.58
477.6  9499.75  615.96  6.48
479.1  9557.87  617.77  6.46
480.6  9632.82  619.99  6.44
482.1  9760.73  626.98  6.42
483.6  9935.74  636.39  6.41
485.1  10133.78  652.88  6.44
486.6  10366.07  666.03  6.43
488.0  10621.00  687.27  6.47
489.5  10873.80  708.88  6.52
491.0  11134.31  732.29  6.58
492.5  11404.80  762.91  6.69
494.0  11683.71  791.12  6.77
495.4  11917.95  823.02  6.91
496.9  12154.26  858.16  7.06
498.4  12387.41  898.61  7.25
499.9  12623.63  942.57  7.47
501.4  12839.71  993.49  7.74
502.8  13042.06  1043.65  8.00
504.3  13226.40  1099.44  8.31
505.8  13406.54  1167.16  8.71
507.2  13518.16  1231.42  9.11
508.7  13603.31  1302.02  9.57
510.2  13672.60  1376.99  10.07
511.6  13715.26  1459.49  10.64
513.1  13806.21  1554.09  11.26
514.6  13898.29  1655.90  11.91
516.0  13992.63  1758.97  12.57
517.5  14151.40  1886.39  13.33
519.0  14339.95  2014.07  14.05
520.5  14520.56  2149.27  14.80
521.9  14760.83  2294.27  15.54
523.4  15031.28  2449.92  16.30
524.8  15295.25  2600.03  17.00
526.3  15594.01  2756.75  17.68
527.8  15909.50  2908.09  18.28
529.2  16189.50  3049.56  18.84
530.7  16509.28  3190.94  19.33
532.1  16791.25  3317.24  19.76
533.6  17121.20  3444.92  20.12
535.0  17454.94  3572.88  20.47
536.5  17789.22  3681.32  20.69
538.0  18136.88  3792.12  20.91
539.4  18461.69  3890.48  21.07
540.9  18864.39  4002.19  21.22
542.3  19206.33  4105.54  21.38
543.8  19460.81  4186.72  21.51
545.2  19544.37  4227.36  21.63
546.6  19566.05  4253.87  21.74
548.1  19604.97  4281.01  21.84
549.5  19640.65  4299.76  21.89
551.0  19664.79  4316.50  21.95
552.4  19724.92  4335.37  21.98
553.9  19761.60  4338.72  21.96
555.3  19812.20  4331.81  21.86
556.8  19934.49  4331.97  21.73
558.2  20047.50  4318.88  21.54
559.6  20200.16  4305.97  21.32
561.1  20397.00  4299.53  21.08
562.5  20617.77  4284.23  20.78
564.0  20901.40  4274.21  20.45
565.4  21161.13  4249.94  20.08
566.8  21482.31  4231.46  19.70
568.3  21793.28  4199.83  19.27
569.7  22118.60  4160.29  18.81
571.1  22425.71  4118.99  18.37
572.6  22741.56  4068.14  17.89
574.0  23030.70  4024.90  17.48
575.4  23309.44  3978.45  17.07
576.9  23581.06  3937.63  16.70
578.3  23822.01  3894.61  16.35
579.7  24048.22  3854.94  16.03
581.1  24227.75  3811.66  15.73
582.6  24429.78  3780.73  15.48
584.0  24600.48  3747.59  15.23
585.4  24853.74  3730.72  15.01
586.8  25196.68  3732.37  14.81
588.3  25573.86  3745.25  14.64
589.7  25896.78  3748.37  14.47
591.1  26104.75  3746.77  14.35
592.5  26211.06  3726.79  14.22
594.0  26269.26  3704.73  14.10
595.4  26286.44  3680.42  14.00
596.8  26295.56  3661.37  13.92
598.2  26315.92  3633.98  13.81
599.6  26317.98  3615.33  13.74
601.0  26398.05  3591.38  13.60
602.4  26470.93  3570.01  13.49
603.9  26597.64  3548.91  13.34
605.3  26727.57  3515.63  13.15
606.7  26857.80  3481.68  12.96
608.1  27088.39  3451.26  12.74
609.5  27333.21  3418.84  12.51
610.9  27623.29  3385.19  12.25
612.3  27891.32  3353.42  12.02
613.7  28252.28  3324.39  11.77
615.1  28513.62  3289.47  11.54
616.5  28776.05  3252.80  11.30
617.9  29165.50  3240.04  11.11
619.3  29543.24  3232.90  10.94
620.7  29990.55  3238.18  10.80
622.1  30437.05  3270.03  10.74
623.5  30934.60  3324.23  10.75
624.9  31494.75  3387.13  10.75
626.3  31867.36  3430.69  10.77
627.7  31569.69  3381.63  10.71
629.1  31287.59  3334.31  10.66
630.5  31184.65  3309.45  10.61
631.9  31222.21  3290.03  10.54
633.3  31256.33  3258.76  10.43
634.7  31400.48  3227.75  10.28
636.1  31461.82  3162.43  10.05
637.5  31554.77  3119.98  9.89
638.9  31702.82  3072.37  9.69
640.2  31825.04  3025.59  9.51
641.6  31863.78  2966.19  9.31
643.0  31847.61  2899.71  9.10
644.4  31829.55  2825.78  8.88
645.8  31751.71  2741.95  8.64
647.2  31867.94  2678.47  8.40
648.5  31926.34  2617.69  8.20
649.9  31776.23  2553.25  8.04
651.3  31648.05  2512.26  7.94
652.7  31449.15  2471.80  7.86
654.1  31244.46  2408.83  7.71
655.5  31005.95  2341.52  7.55
656.8  30780.41  2264.81  7.36
658.2  30925.42  2219.48  7.18
659.6  31264.45  2190.46  7.01
660.9  31536.04  2152.08  6.82
662.3  31822.64  2115.42  6.65
663.7  32096.40  2080.68  6.48
665.0  32332.90  2046.13  6.33
666.4  32562.99  2023.97  6.22
667.8  32863.56  2012.53  6.12
669.1  33114.69  1996.46  6.03
670.5  33405.09  1998.38  5.98
671.9  33586.56  2004.37  5.97
673.2  33844.75  2020.46  5.97
674.6  34082.18  2041.03  5.99
676.0  34372.41  2070.84  6.02
677.3  34659.68  2115.39  6.10
678.7  34979.63  2166.37  6.19
680.0  35399.92  2237.45  6.32
681.4  35845.89  2328.38  6.50
682.8  36270.33  2442.14  6.73
684.1  36705.24  2579.62  7.03
685.5  37104.21  2752.30  7.42
686.8  37507.62  2970.70  7.92
688.2  37862.83  3228.89  8.53
689.5  38000.96  3528.05  9.28
690.9  38124.79  3875.11  10.16
692.2  38229.60  4279.58  11.19
693.6  38334.37  4744.33  12.38
694.9  38335.34  5249.00  13.69
696.2  38393.33  5806.70  15.12
697.6  38453.39  6406.55  16.66
698.9  38522.88  7036.13  18.26
700.3  38613.54  7691.03  19.92
701.6  38716.02  8371.99  21.62
703.0  38828.83  9046.03  23.30
704.3  38882.19  9711.85  24.98
705.6  38895.39  10366.89  26.65
707.0  38949.12  11006.66  28.26
708.3  38885.46  11624.29  29.89
709.6  38817.35  12215.55  31.47
711.0  38702.88  12793.07  33.05
712.3  38573.15  13340.03  34.58
713.6  38531.64  13894.83  36.06
714.9  38462.14  14422.24  37.50
716.3  38461.08  14968.97  38.92
717.6  38479.84  15513.54  40.32
718.9  38424.85  15997.98  41.63
720.2  38251.08  16411.72  42.91
721.6  38113.53  16817.36  44.12
722.9  37945.16  17192.19  45.31
724.2  37714.27  17510.60  46.43
725.5  37534.96  17826.74  47.49
726.8  37360.68  18122.71  48.51
728.1  37271.09  18412.02  49.40
729.5  37167.13  18680.34  50.26
730.8  37093.13  18942.04  51.07
732.1  36996.92  19166.93  51.81
733.4  36936.39  19383.78  52.48
734.7  36864.47  19581.23  53.12
736.0  36851.62  19795.27  53.72
737.3  36774.45  19953.49  54.26
738.6  36845.76  20175.24  54.76
739.9  37000.34  20422.79  55.20
741.2  37119.81  20619.14  55.55
742.5  37372.03  20881.20  55.87
743.8  37768.50  21222.36  56.19
745.1  38387.22  21684.81  56.49
746.4  39127.73  22209.22  56.76
747.7  39918.22  22749.62  56.99
749.0  40672.12  23263.10  57.20
750.3  41122.66  23586.46  57.36
751.6  41047.35  23620.94  57.55
752.9  40630.59  23446.14  57.71
754.2  40176.47  23245.91  57.86
755.4  39652.21  23018.72  58.05
756.7  39478.17  22958.56  58.16
758.0  39495.60  23007.82  58.25
759.3  39730.28  23183.38  58.35
760.6  40061.56  23420.73  58.46
761.9  40384.10  23637.30  58.53
763.1  40567.56  23780.61  58.62
764.4  40796.65  23918.83  58.63
765.7  40953.25  24034.83  58.69
767.0  41079.80  24125.86  58.73
768.2  41207.04  24203.20  58.74
769.5  41279.98  24268.81  58.79
770.8  41469.61  24386.32  58.81
772.0  41501.32  24427.89  58.86
773.3  41583.65  24487.23  58.89
774.6  41708.58  24555.32  58.87
775.8  41815.15  24616.17  58.87
777.1  41846.51  24623.47  58.84
778.4  41799.94  24590.08  58.83
779.6  41775.90  24597.61  58.88
780.9  41704.00  24565.87  58.91
782.1  41523.21  24493.64  58.99
783.4  41558.40  24485.76  58.92
784.6  41567.36  24500.43  58.94
785.9  41861.56  24649.53  58.88
787.1  42409.87  24987.41  58.92
788.4  42854.47  25253.77  58.93
789.6  42849.18  25253.16  58.93
790.9  42483.96  25020.26  58.89
792.1  42011.92  24751.36  58.92
793.4  41570.15  24513.96  58.97
794.6  41283.15  24331.23  58.94
795.8  41024.39  24184.81  58.95
797.1  40758.68  24023.63  58.94
798.3  40551.64  23911.42  58.97
799.5  40444.72  23840.21  58.95
800.8  40323.21  23774.70  58.96
802.0  40187.32  23711.32  59.00
803.2  40033.64  23622.12  59.01
804.5  39942.72  23572.48  59.02
805.7  39829.66  23506.15  59.02
806.9  39715.93  23434.07  59.00
808.1  39632.97  23382.05  59.00
809.4  39553.39  23349.37  59.03
810.6  39489.45  23300.85  59.01
811.8  39474.39  23300.24  59.03
813.0  39504.71  23319.48  59.03
814.2  39525.61  23367.48  59.12
815.4  39644.33  23442.19  59.13
816.6  39709.73  23472.74  59.11
817.9  39791.57  23494.71  59.04
819.1  39719.87  23470.68  59.09
820.3  39621.11  23418.66  59.11
821.5  39546.25  23380.36  59.12
822.7  39480.04  23356.10  59.16
823.9  39499.25  23362.95  59.15
825.1  39541.96  23380.51  59.13
826.3  39583.35  23402.96  59.12
827.5  39640.56  23442.67  59.14
828.7  39708.48  23484.00  59.14
829.9  39767.03  23519.11  59.14
831.0  39870.82  23579.70  59.14
832.2  39993.87  23645.01  59.12
833.4  40076.64  23694.25  59.12
834.6  40148.44  23755.00  59.17
835.8  40238.10  23810.22  59.17
837.0  40328.28  23882.63  59.22
838.1  40500.72  23977.66  59.20
839.3  40601.19  24034.42  59.20
840.5  40716.87  24090.61  59.17
841.7  40854.11  24184.46  59.20
842.9  40980.73  24270.22  59.22
844.0  41100.82  24345.35  59.23
845.2  41245.09  24448.78  59.28
846.4  41368.25  24534.41  59.31
847.5  41564.18  24668.15  59.35
848.7  41743.64  24778.42  59.36
849.9  41936.76  24894.00  59.36
851.0  42020.98  24937.38  59.35
852.2  42107.61  24972.03  59.31
853.3  42066.96  24973.56  59.37
854.5  42098.11  24971.07  59.32
855.6  42095.43  24977.07  59.33
856.8  42111.00  25002.84  59.37
857.9  42111.88  24995.25  59.35
859.1  42240.60  25059.57  59.33
860.2  42245.56  25067.25  59.34
861.4  42273.83  25093.04  59.36
862.5  42309.54  25112.79  59.35
863.7  42384.63  25146.73  59.33
864.8  42387.10  25158.28  59.35
865.9  42333.82  25133.99  59.37
867.1  42372.33  25147.67  59.35
868.2  42368.54  25149.51  59.36
869.3  42393.50  25149.66  59.32
870.5  42342.80  25117.67  59.32
871.6  42318.48  25108.05  59.33
872.7  42385.23  25152.64  59.34
873.9  42404.90  25147.33  59.30
875.0  42391.36  25120.70  59.26
876.1  42363.75  25130.69  59.32
877.2  42397.32  25126.66  59.26
878.3  42381.77  25112.05  59.25
879.4  42397.70  25116.63  59.24
880.5  42451.56  25142.50  59.23
881.7  42410.55  25124.67  59.24
882.8  42454.72  25146.61  59.23
883.9  42482.63  25141.03  59.18
885.0  42446.04  25107.99  59.15
886.1  42420.10  25089.98  59.15
887.2  42295.80  25003.91  59.12
888.3  42201.80  24936.80  59.09
889.4  42117.30  24870.29  59.05
890.5  42026.34  24838.19  59.10
891.6  41981.69  24781.80  59.03
892.7  41962.31  24749.14  58.98
893.8  41981.79  24768.14  59.00
894.9  41952.35  24758.13  59.01
896.0  41968.71  24741.32  58.95
897.0  41952.48  24748.02  58.99
898.1  41951.64  24760.48  59.02
899.2  41983.30  24753.49  58.96
900.3  41907.57  24711.98  58.97
901.4  41820.39  24658.57  58.96
902.4  41828.99  24662.41  58.96
903.5  41775.96  24601.61  58.89
904.6  41798.96  24621.09  58.90
905.7  41805.42  24615.65  58.88
906.7  41815.90  24612.93  58.86
907.8  41839.20  24643.80  58.90
908.9  41746.38  24581.39  58.88
909.9  41734.69  24576.77  58.89
911.0  41681.88  24539.67  58.87
912.1  41602.05  24476.03  58.83
913.1  41535.52  24451.03  58.87
914.2  41457.24  24367.38  58.78
915.2  41368.59  24362.28  58.89
916.3  41436.15  24377.28  58.83
917.3  41410.15  24355.11  58.81
918.4  41310.50  24318.25  58.87
919.4  41328.17  24282.48  58.76
920.5  41309.67  24276.88  58.77
921.5  41323.66  24289.38  58.78
922.6  41255.80  24231.77  58.74
923.6  41303.54  24250.71  58.71
924.7  41344.50  24260.60  58.68
925.7  41333.16  24245.31  58.66
926.7  41356.90  24252.47  58.64
927.8  41415.30  24279.54  58.62
928.8  41570.85  24322.58  58.51
929.9  41658.93  24397.70  58.57
930.9  41879.39  24498.91  58.50
931.9  42070.56  24590.37  58.45
932.9  42412.10  24752.41  58.36
934.0  42452.50  24777.04  58.36
935.0  42440.57  24765.24  58.35
936.0  42488.02  24767.11  58.29
937.0  42429.47  24724.15  58.27
938.1  42380.86  24715.00  58.32
939.1  42337.65  24675.94  58.28
940.1  42429.30  24726.75  58.28
941.1  42615.86  24800.20  58.19
942.1  42903.92  24931.68  58.11
943.1  43057.09  25033.57  58.14
944.1  43342.63  25154.41  58.04
945.2  43356.60  25189.36  58.10
946.2  43482.48  25188.88  57.93
947.2  43549.00  25230.60  57.94
948.2  43743.16  25293.16  57.82
949.2  43840.88  25330.29  57.78
950.2  43906.25  25366.81  57.77
951.2  44010.96  25418.40  57.75
952.2  44061.91  25438.62  57.73
953.2  44318.14  25466.05  57.46
954.2  44380.80  25537.05  57.54
955.2  44428.35  25544.77  57.50
956.2  44460.20  25534.35  57.43
957.2  44542.35  25522.71  57.30
958.2  44649.94  25565.81  57.26
959.2  44705.25  25641.00  57.36
960.1  44813.66  25604.89  57.14
961.1  44928.76  25667.94  57.13
962.1  44958.75  25683.25  57.13
963.1  44986.01  25724.36  57.18
964.1  45106.16  25757.52  57.10
965.1  45270.70  25858.01  57.12
966.1  45207.41  25862.78  57.21
967.0  45355.66  25959.13  57.23
968.0  45441.48  25945.57  57.10
969.0  45453.60  25976.75  57.15
970.0  45557.64  26027.89  57.13
971.0  45615.57  26047.81  57.10
971.9  45699.86  26114.66  57.14
972.9  45781.93  26197.16  57.22
973.9  45829.88  26222.73  57.22
974.9  45973.78  26271.76  57.15
975.8  45979.65  26376.81  57.37
976.8  46106.16  26405.80  57.27
977.8  46097.80  26501.19  57.49
978.8  46103.70  26536.30  57.56
979.7  46387.55  26646.87  57.44
980.7  46405.76  26722.08  57.58
981.7  46694.84  26915.47  57.64
982.6  46857.76  27077.64  57.79
983.6  47433.79  27213.24  57.37
984.6  47818.98  27499.94  57.51
985.5  48063.24  27806.54  57.85
986.5  48770.77  28371.88  58.17
987.5  50043.63  28889.66  57.73
988.4  50895.90  29093.53  57.16
989.4  52431.75  29844.49  56.92
990.4  53425.02  30536.93  57.16
991.3  55387.31  31335.02  56.57
992.3  55950.90  31562.04  56.41
993.2  58118.31  32701.83  56.27
994.2  59457.94  33701.27  56.68
995.2  60710.63  33125.06  54.56
996.1  61737.77  33945.58  54.98
997.1  61885.85  34004.65  54.95
998.0  61668.00  33346.40  54.07
999.0  61787.86  34109.79  55.20
1000.0  62252.49  34101.37  54.78
1000.9  62564.91  34417.26  55.01
1001.9  61626.12  33624.08  54.56
1002.8  61885.09  34399.19  55.59
1003.8  61970.58  34389.31  55.49
1004.8  62064.96  34074.88  54.90
961.5  55881.62  27779.67  49.71
965.5  54589.44  27408.45  50.21
969.5  52393.79  26895.05  51.33
973.4  50126.74  26445.76  52.76
977.4  48345.52  25998.88  53.78
981.4  47464.01  25941.64  54.66
985.3  47176.98  26044.80  55.21
989.3  47304.75  26175.36  55.33
993.3  47508.66  26273.98  55.30
997.2  47541.75  26244.49  55.20
1001.2  47520.33  26214.15  55.16
1005.2  47455.76  26222.71  55.26
1009.1  47529.68  26319.25  55.37
1013.1  47663.39  26475.66  55.55
1017.1  47785.75  26602.24  55.67
1021.0  47816.50  26646.33  55.73
1025.0  47819.30  26681.15  55.80
1029.0  47652.00  26621.95  55.87
1032.9  47495.63  26568.27  55.94
1036.9  47497.16  26614.74  56.03
1040.9  47608.97  26708.38  56.10
1044.8  47827.54  26852.74  56.14
1048.8  48004.98  26989.80  56.22
1052.7  48133.54  27079.54  56.26
1056.7  48188.20  27111.59  56.26
1060.7  48194.60  27123.03  56.28
1064.6  48198.22  27129.60  56.29
1068.6  48113.17  27083.00  56.29
1072.5  48026.55  27026.22  56.27
1076.5  47975.49  27002.53  56.28
1080.4  47966.69  26991.36  56.27
1084.4  48069.59  27014.63  56.20
1088.3  48170.15  27059.42  56.17
1092.3  48152.58  27031.56  56.14
1096.2  48142.77  26986.86  56.06
1100.2  48183.64  26974.62  55.98
1104.1  48079.94  26873.02  55.89
1108.1  48035.13  26803.85  55.80
1112.0  47943.86  26713.35  55.72
1116.0  47742.57  26548.32  55.61
1119.9  47581.47  26379.08  55.44
1123.9  47666.30  26334.45  55.25
1127.8  47639.04  26204.16  55.01
1131.8  47617.38  26024.84  54.65
1135.7  47659.94  25838.59  54.21
1139.6  47675.62  25569.03  53.63
1143.6  47638.82  25243.09  52.99
1147.5  47616.88  24933.79  52.36
1151.4  47500.80  24603.93  51.80
1155.4  47513.75  24424.39  51.40
1159.3  47522.52  24323.63  51.18
1163.2  47363.89  24167.25  51.02
1167.2  47347.50  24108.58  50.92
1171.1  47369.57  24074.53  50.82
1175.0  47314.40  24002.78  50.73
1179.0  47268.08  23955.69  50.68
1182.9  47358.68  23977.05  50.63
1186.8  47350.70  23950.08  50.58
1190.7  47139.70  23815.84  50.52
1194.7  46883.87  23660.99  50.47
1198.6  46652.76  23541.21  50.46
1202.5  46480.48  23471.08  50.50
1206.4  46340.80  23420.80  50.54
1210.3  46236.01  23398.36  50.61
1214.2  46114.66  23375.04  50.69
1218.2  45952.68  23327.81  50.76
1222.1  45800.88  23288.53  50.85
1226.0  45686.61  23268.06  50.93
1229.9  45598.02  23251.10  50.99
1233.8  45484.04  23222.63  51.06
1237.7  45416.66  23207.75  51.10
1241.6  45332.53  23180.53  51.13
1245.5  45166.97  23116.69  51.18
1249.4  45023.84  23059.51  51.22
1253.3  44894.25  23005.79  51.24
1257.2  44816.00  22963.25  51.24
1261.1  44716.86  22896.43  51.20
1265.0  44587.73  22818.70  51.18
1268.9  44400.64  22697.62  51.12
1272.8  44460.00  22697.40  51.05
1276.7  44653.74  22768.00  50.99
1280.6  44733.81  22765.46  50.89
1284.5  44649.07  22665.00  50.76
1288.4  44631.63  22587.98  50.61
1292.3  44511.50  22448.25  50.43
1296.2  44360.33  22283.75  50.23
1300.1  44197.71  22085.47  49.97
1303.9  43963.66  21825.01  49.64
1307.8  43715.49  21545.93  49.29
1311.7  43464.03  21241.02  48.87
1315.6  43214.30  20923.21  48.42
1319.5  42962.15  20573.78  47.89
1323.3  42734.84  20214.98  47.30
1327.2  42525.95  19856.60  46.69
1331.1  42285.13  19467.96  46.04
1335.0  41985.32  19046.28  45.36
1338.8  41775.29  18660.76  44.67
1342.7  41609.18  18280.15  43.93
1346.5  41242.98  17802.43  43.16
1350.4  40931.78  17338.52  42.36
1354.3  40517.39  16827.62  41.53
1358.1  40047.65  16325.77  40.77
1362.0  39764.09  15933.49  40.07
1365.8  39670.89  15609.52  39.35
1369.7  39786.92  15311.96  38.48
1373.5  39741.56  14822.57  37.30
1377.4  39487.75  14083.96  35.67
1381.2  39276.49  13198.15  33.60
1385.1  39242.56  12275.11  31.28
1389.0  39129.70  11271.68  28.81
1392.8  38925.66  10178.94  26.15
1396.6  38773.68  9131.63  23.55
1400.5  38560.99  8184.80  21.23
1404.3  38397.74  7395.54  19.26
1408.2  38363.03  6781.24  17.68
1412.0  38325.01  6295.29  16.43
1415.8  38359.09  5939.65  15.48
1419.6  38319.36  5661.87  14.78
1423.5  38299.37  5453.40  14.24
1427.3  38266.05  5301.80  13.86
1431.1  38248.58  5194.83  13.58
1434.9  38159.15  5110.30  13.39
1438.8  38104.90  5060.59  13.28
1442.6  38084.31  5032.98  13.22
1446.4  37958.74  5003.39  13.18
1450.2  37871.04  4998.15  13.20
1454.0  37772.76  5002.32  13.24
1457.8  37752.26  5030.91  13.33
1461.6  37732.17  5084.54  13.48
1465.4  37609.21  5152.09  13.70
1469.2  37426.03  5241.60  14.01
1473.0  37290.43  5364.61  14.39
1476.8  37245.30  5522.63  14.83
1480.7  37186.44  5702.06  15.33
1484.4  37061.40  5886.96  15.88
1488.2  36961.08  6095.20  16.49
1492.0  36836.53  6299.74  17.10
1495.8  36720.78  6508.78  17.73
1499.6  36605.30  6704.82  18.32
1503.4  36479.87  6888.40  18.88
1507.2  36356.05  7071.48  19.45
1510.9  36204.04  7238.31  19.99
1514.7  36047.88  7393.11  20.51
1518.5  35919.58  7562.76  21.05
1522.3  35781.38  7733.20  21.61
1526.0  35674.52  7904.13  22.16
1529.8  35609.17  8089.49  22.72
1533.6  35484.33  8255.86  23.27
1537.3  35352.32  8415.50  23.80
1541.1  35225.58  8577.11  24.35
1544.8  35097.60  8738.40  24.90
1548.6  34949.35  8902.82  25.47
1552.4  34850.72  9071.00  26.03
1556.1  34790.76  9210.22  26.47
1559.9  34705.82  9311.86  26.83
1563.6  34578.39  9408.68  27.21
1567.3  34459.02  9530.52  27.66
1571.1  34243.92  9620.45  28.09
1574.8  34100.68  9716.68  28.49
1578.6  34000.34  9813.88  28.86
1582.3  33854.52  9890.46  29.21
1586.0  33716.51  9957.78  29.53
1589.8  33582.95  10019.39  29.83
1593.5  33431.04  10069.99  30.12
1597.2  33294.67  10121.82  30.40
1600.9  33154.19  10166.29  30.66
1604.7  33000.40  10202.34  30.92
1608.4  32856.34  10246.35  31.19
1612.1  32695.22  10273.63  31.42
1615.8  32545.96  10299.28  31.65
1619.5  32465.11  10338.90  31.85
1623.2  32316.22  10353.65  32.04
1626.9  32130.25  10350.01  32.21
1630.6  31953.68  10350.34  32.39
1634.3  31816.04  10362.74  32.57
1638.0  31668.49  10358.46  32.71
1641.7  31487.82  10335.81  32.82
1645.4  31299.16  10298.99  32.90
1649.1  31105.38  10258.14  32.98
1652.8  30949.76  10223.44  33.03
1656.4  30780.36  10175.12  33.06
1660.1  30613.88  10131.41  33.09
1663.8  30416.03  10082.97  33.15
1667.5  30257.50  10045.22  33.20
1671.1  30134.40  10007.42  33.21
1674.8  29937.06  9940.92  33.21
1678.5  29873.87  9914.33  33.19
1682.1  29892.23  9898.53  33.11
1685.8  29901.92  9878.68  33.04
1689.5  29795.07  9811.97  32.93
1693.1  29653.44  9724.11  32.79
1696.8  29511.75  9638.55  32.66
1700.4  29358.15  9551.82  32.54
1704.0  29237.42  9471.52  32.40
1707.7  28983.16  9336.28  32.21
1711.3  28689.26  9182.13  32.01
1715.0  28479.20  9061.09  31.82
1718.6  28311.14  8950.66  31.62
1722.2  28171.19  8846.99  31.40
1725.9  28024.58  8743.10  31.20
1729.5  27888.80  8636.77  30.97
1733.1  27770.82  8534.84  30.73
1736.7  27655.67  8431.68  30.49
1740.3  27487.42  8303.47  30.21
1744.0  27395.86  8197.51  29.92
1747.5  27255.01  8069.62  29.61
1751.2  27041.09  7918.74  29.28
1754.8  26881.34  7785.44  28.96
1758.4  26750.86  7655.82  28.62
1762.0  26572.85  7522.16  28.31
1765.5  26446.23  7411.47  28.02
1769.1  26402.40  7327.20  27.75
1772.7  26328.38  7240.40  27.50
1776.3  26208.92  7149.66  27.28
1779.9  26081.92  7064.21  27.08
1783.5  26027.60  7001.04  26.90
1787.0  25897.14  6933.06  26.77
1790.6  25747.79  6869.26  26.68
1794.2  25651.68  6814.77  26.57
1797.8  25552.23  6768.25  26.49
1801.3  25471.95  6738.35  26.45
1804.9  25318.13  6689.38  26.42
1808.4  25235.40  6657.38  26.38
1812.0  25102.89  6602.88  26.30
1815.5  24947.72  6541.34  26.22
1819.1  24745.29  6480.71  26.19
1822.6  24588.72  6426.16  26.13
1826.2  24468.62  6366.23  26.02
1829.7  24298.19  6283.19  25.86
1833.2  24066.25  6170.91  25.64
1836.8  23846.10  6062.12  25.42
1840.3  23701.28  5975.42  25.21
1843.8  23605.26  5876.73  24.90
1847.3  23552.23  5770.99  24.50
1850.8  23482.37  5632.71  23.99
1854.3  23328.90  5446.74  23.35
1857.8  23249.20  5241.60  22.55
1861.3  23245.10  4983.36  21.44
1864.8  23154.55  4636.71  20.03
1868.3  22923.75  4230.72  18.46
1871.8  22725.12  3791.36  16.68
1875.3  22663.55  3367.31  14.86
1878.8  22668.35  2972.43  13.11
1882.3  22613.87  2597.95  11.49
1885.8  22446.65  2259.39  10.07
1889.3  22245.45  1971.26  8.86
1892.7  22073.02  1800.32  8.16
1896.2  21956.57  1697.87  7.73
1899.7  21800.31  1652.87  7.58
1903.1  21719.54  1724.80  7.94
1906.6  21807.87  1898.89  8.71
1910.0  22098.88  2161.24  9.78
1913.5  22634.73  2607.78  11.52
1917.0  23151.98  3310.95  14.30
1920.4  23436.08  3990.76  17.03
1923.8  23677.97  4388.82  18.54
1871.2  20787.15  2789.17  13.42
1873.9  20907.54  2591.52  12.40
1876.7  21048.38  2356.46  11.20
1879.5  21252.88  2049.31  9.64
1882.3  20993.42  1729.16  8.24
1885.1  20851.78  1468.27  7.04
1887.8  20921.79  1256.24  6.00
1890.6  20723.54  1094.13  5.28
1893.4  20650.67  946.00  4.58
1896.2  20581.86  793.11  3.85
1898.9  20516.13  738.68  3.60
1901.7  20380.18  697.56  3.42
1904.5  20546.36  627.75  3.06
1907.2  20463.00  603.25  2.95
1910.0  20358.58  602.38  2.96
1912.7  20364.96  581.82  2.86
1915.5  20273.08  570.77  2.82
1918.2  20210.43  564.19  2.79
1921.0  20079.87  550.13  2.74
1923.7  20126.73  571.40  2.84
1926.5  20096.89  565.57  2.81
1929.2  20080.15  551.55  2.75
1932.0  20066.00  564.59  2.81
1934.7  20016.92  571.14  2.85
1937.4  19925.11  568.64  2.85
1940.2  19881.39  573.69  2.89
1942.9  19959.98  585.66  2.93
1945.6  19965.22  588.90  2.95
1948.3  19894.11  600.66  3.02
1951.1  19862.99  617.05  3.11
1953.8  19866.00  625.00  3.15
1956.5  19752.03  631.95  3.20
1959.2  19805.76  655.81  3.31
1961.9  19837.86  667.52  3.36
1964.6  19745.08  681.28  3.45
1967.3  19784.70  699.14  3.53
1970.0  19621.84  697.57  3.56
1972.8  19538.55  720.71  3.69
1975.5  19602.81  749.23  3.82
1978.2  19540.64  763.09  3.91
1980.9  19419.73  777.34  4.00
1983.5  19352.05  804.64  4.16
1986.2  19366.05  819.65  4.23
1988.9  19348.59  837.11  4.33
1991.6  19202.00  862.24  4.49
1994.3  19065.89  870.35  4.56
1997.0  19096.32  910.17  4.77
1999.7  19065.00  944.78  4.96
2002.3  19034.90  966.56  5.08
2005.0  18965.86  1001.08  5.28
2007.7  18877.00  1021.49  5.41
2010.4  18811.60  1039.22  5.52
2013.0  18774.16  1076.36  5.73
2015.7  18678.28  1101.62  5.90
2018.4  18548.96  1111.03  5.99
2021.0  18504.50  1146.55  6.20
2023.7  18401.60  1179.66  6.41
2026.4  18333.68  1192.39  6.50
2029.0  18267.40  1220.26  6.68
2031.7  18144.97  1241.21  6.84
2034.3  18142.15  1252.48  6.90
2037.0  18035.71  1283.64  7.12
2039.6  17974.39  1316.64  7.33
2042.3  17908.74  1328.34  7.42
2044.9  17825.78  1354.82  7.60
2047.5  17820.17  1378.19  7.73
2050.2  17715.60  1389.73  7.84
2052.8  17679.20  1427.07  8.07
2055.4  17538.43  1440.06  8.21
2058.1  17416.00  1448.53  8.32
2060.7  17404.47  1480.42  8.51
2063.3  17299.63  1498.30  8.66
2065.9  17230.17  1521.46  8.83
2068.6  17165.96  1541.00  8.98
2071.2  17119.44  1558.68  9.10
2073.8  17041.85  1576.40  9.25
2076.4  16999.98  1606.35  9.45
2079.0  17011.74  1626.99  9.56
2081.6  16984.09  1643.92  9.68
2084.2  16930.00  1674.19  9.89
2086.8  16834.24  1690.40  10.04
2089.4  16742.01  1686.87  10.08
2092.1  16637.33  1700.00  10.22
2094.7  16574.28  1731.73  10.45
2097.2  16549.50  1753.83  10.60
2099.8  16541.98  1785.81  10.80
2102.4  16400.35  1783.72  10.88
2105.0  16267.80  1776.50  10.92
2107.6  16238.35  1807.74  11.13
2110.2  16217.39  1833.82  11.31
2112.8  16200.74  1843.03  11.38
2115.3  16182.65  1870.56  11.56
2117.9  16188.40  1891.89  11.69
2120.5  16181.17  1900.58  11.75
2123.1  16113.83  1912.95  11.87
2125.6  16056.05  1918.06  11.95
2128.2  15953.26  1922.82  12.05
2130.8  15859.35  1941.23  12.24
2133.3  15825.33  1950.67  12.33
2135.9  15723.21  1948.37  12.39
2138.4  15584.92  1962.48  12.59
2141.0  15487.96  1953.01  12.61
2143.6  15482.13  1945.65  12.57
2146.1  15358.67  1959.87  12.76
2148.7  15182.57  1954.84  12.88
2151.2  15188.80  1949.69  12.84
2153.8  15199.37  1960.26  12.90
2156.3  15064.95  1965.93  13.05
2158.8  14994.07  1968.89  13.13
2161.4  14983.43  1975.38  13.18
2163.9  14894.98  1960.64  13.16
2166.4  14806.99  1955.34  13.21
2169.0  14777.42  1972.09  13.35
2171.5  14688.72  1966.18  13.39
2174.0  14586.43  1953.59  13.39
2176.5  14576.25  1960.44  13.45
2179.1  14537.32  1962.60  13.50
2181.6  14435.75  1952.75  13.53
2184.1  14405.16  1961.96  13.62
2186.6  14458.30  1983.43  13.72
2189.1  14358.33  1967.73  13.70
2191.6  14308.00  1961.09  13.71
2194.1  14339.64  1965.32  13.71
2196.6  14340.73  1962.14  13.68
2199.2  14399.84  2006.96  13.94
2201.7  14323.09  2014.09  14.06
2204.1  14264.18  1981.55  13.89
2206.6  14278.44  1985.60  13.91
2209.1  14246.74  1993.44  13.99
2211.6  14236.93  1994.69  14.01
2214.1  14172.61  1999.68  14.11
2216.6  14103.21  1989.06  14.10
2219.1  14137.40  1980.20  14.01
2221.6  14080.86  1971.85  14.00
2224.0  14024.61  1950.72  13.91
2226.5  13983.38  1930.41  13.81
2229.0  13981.89  1949.01  13.94
2231.5  13918.22  1915.00  13.76
2233.9  13896.33  1902.36  13.69
2236.4  13868.98  1914.56  13.80
2238.9  13826.00  1876.79  13.57
2241.3  13828.76  1853.94  13.41
2243.8  13758.80  1838.39  13.36
2246.2  13610.98  1818.16  13.36
2248.7  13571.61  1799.78  13.26
2251.2  13563.12  1790.99  13.20
2253.6  13482.24  1756.16  13.03
2256.1  13474.56  1724.16  12.80
2258.5  13495.78  1705.70  12.64
2260.9  13407.16  1677.18  12.51
2263.4  13372.75  1659.44  12.41
2265.8  13367.17  1639.96  12.27
2268.3  13288.30  1632.98  12.29
2270.7  13342.05  1617.22  12.12
2273.1  13272.94  1596.64  12.03
2275.6  13194.24  1583.36  12.00
2278.0  13232.60  1553.99  11.74
2280.4  13249.81  1549.60  11.70
2282.8  13117.21  1521.57  11.60
2285.3  13103.68  1485.34  11.34
2287.7  13191.09  1489.11  11.29
2290.1  13097.39  1466.69  11.20
2292.5  13047.88  1428.60  10.95
2294.9  13056.31  1441.04  11.04
2297.3  12972.40  1427.76  11.01
2299.7  12875.52  1351.65  10.50
2302.1  12826.01  1343.49  10.47
2304.5  12696.88  1336.72  10.53
2306.9  12602.80  1287.07  10.21
2309.3  12519.08  1282.60  10.25
2311.7  12473.65  1261.24  10.11
2314.1  12315.17  1210.38  9.83
2316.5  12229.76  1221.40  9.99
2318.9  12290.12  1214.03  9.88
2321.3  12265.32  1171.33  9.55
2323.7  12235.57  1170.05  9.56
2326.1  12214.93  1153.92  9.45
2328.4  12270.09  1135.06  9.25
2330.8  12319.08  1135.66  9.22
2333.2  12235.57  1106.46  9.04
2335.6  12168.54  1080.82  8.88
2337.9  12202.83  1094.80  8.97
2340.3  12141.58  1081.77  8.91
2342.7  12039.09  1036.76  8.61
2345.0  12013.82  1024.86  8.53
2347.4  11993.50  1010.08  8.42
2349.7  11798.34  968.24  8.21
2352.1  11775.76  957.73  8.13
2354.4  11820.42  961.39  8.13
2356.8  11728.38  930.96  7.94
2359.2  11704.33  925.89  7.91
2361.5  11645.74  920.66  7.91
2363.8  11633.53  882.73  7.59
2366.2  11660.03  891.49  7.65
2368.5  11627.85  873.68  7.51
2370.9  11603.83  836.51  7.21
2373.2  11533.95  842.38  7.30
2375.5  11398.48  799.42  7.01
2377.9  11373.04  771.88  6.79
2380.2  11408.35  780.41  6.84
2382.5  11308.30  764.31  6.76
2384.8  11261.28  743.95  6.61
2387.2  11252.00  753.26  6.69
2389.5  11242.29  739.73  6.58
2391.8  11232.13  713.00  6.35
2394.1  11132.13  706.96  6.35
2396.4  11089.46  677.37  6.11
2398.7  11160.99  669.04  5.99
2401.0  11096.58  662.63  5.97
2403.3  10926.12  624.16  5.71
2405.6  10921.36  593.14  5.43
2407.9  10891.74  607.88  5.58
2410.2  10793.71  603.27  5.59
2412.5  10752.81  572.54  5.32
2414.8  10737.29  576.84  5.37
2417.1  10694.97  567.78  5.31
2419.4  10638.82  547.05  5.14
2421.7  10597.44  548.44  5.18
2424.0  10571.95  540.66  5.11
2426.2  10576.95  495.77  4.69
2428.5  10508.39  502.98  4.79
2430.8  10485.80  510.48  4.87
2433.1  10443.79  486.79  4.66
2435.4  10361.94  496.09  4.79
2437.6  10328.37  481.17  4.66
2439.9  10224.92  443.59  4.34
2442.2  10193.49  443.69  4.35
2444.4  10223.13  438.41  4.29
2446.7  10173.28  408.80  4.02
2448.9  10197.11  412.54  4.05
2451.2  10173.72  389.39  3.83
2453.4  10028.37  367.63  3.67
2455.7  9998.26  387.20  3.87
2457.9  9908.42  372.41  3.76
2460.2  9870.17  353.46  3.58
2462.4  9896.64  372.32  3.76
2464.7  9834.69  361.68  3.68
2466.9  9751.98  331.70  3.40
2469.2  9722.50  334.89  3.44
2471.4  9624.29  308.56  3.21
2473.6  9553.77  321.36  3.36
2475.9  9536.85  349.96  3.67
2478.1  9427.70  321.09  3.41
2480.3  9377.37  273.83  2.92
2482.5  9321.43  302.61  3.25
2484.8  9240.44  300.98  3.26
2487.0  9258.33  249.36  2.69
2489.2  9302.30  293.99  3.16
2491.4  9183.58  266.42  2.90
2493.6  9147.34  256.05  2.80
2495.8  9177.35  287.70  3.13
2498.0  9103.79  251.31  2.76
2500.2  9132.70  258.37  2.83
2502.4  9403.92  298.96  3.18
2504.6  9512.07  297.35  3.13
2506.8  9585.80  282.51  2.95
