/*** Spectra Vista SIG Data ***/
name= GT.sig
comm= SIG file reprocesed for matching/overlap;Averaged Ref/Tar of files: GD2T1,GD2T2,GD2T3
data=
346.4  509.60  159.78  31.35
347.9  549.06  165.77  30.19
349.5  608.40  158.08  25.98
351.1  655.20  163.28  24.92
352.6  708.40  169.72  23.96
354.2  752.68  171.81  22.83
355.7  818.30  180.72  22.08
357.3  873.81  194.76  22.29
358.8  891.23  188.73  21.18
360.4  967.31  199.33  20.61
361.9  1009.93  201.41  19.94
363.5  1059.53  200.25  18.90
365.1  1102.67  198.81  18.03
366.6  1156.59  203.12  17.56
368.2  1218.77  201.45  16.53
369.7  1306.00  198.08  15.17
371.3  1379.56  206.33  14.96
372.8  1457.48  204.73  14.05
374.4  1528.58  219.72  14.37
375.9  1575.56  222.32  14.11
377.4  1632.76  215.75  13.21
379.0  1683.54  211.64  12.57
380.5  1741.87  216.96  12.46
382.1  1805.51  212.27  11.76
383.6  1862.60  212.15  11.39
385.2  1949.75  214.50  11.00
386.7  2036.04  218.40  10.73
388.3  2135.96  226.00  10.58
389.8  2212.47  235.15  10.63
391.3  2314.34  235.80  10.19
392.9  2392.65  245.62  10.27
394.4  2474.90  257.68  10.41
395.9  2552.82  276.32  10.82
397.5  2664.75  284.24  10.67
399.0  2774.82  286.34  10.32
400.6  2852.64  278.76  9.77
402.1  2910.24  267.46  9.19
403.6  2965.71  268.52  9.05
405.1  3036.77  268.11  8.83
406.7  3133.76  277.76  8.86
408.2  3234.33  285.86  8.84
409.7  3330.88  296.80  8.91
411.3  3437.91  306.00  8.90
412.8  3528.93  321.14  9.10
414.3  3634.54  333.27  9.17
415.8  3740.00  344.17  9.20
417.4  3868.37  355.89  9.20
418.9  3954.39  363.06  9.18
420.4  4037.85  370.14  9.17
421.9  4106.74  374.70  9.12
423.5  4196.00  377.88  9.01
425.0  4263.51  381.33  8.94
426.5  4364.50  384.50  8.81
428.0  4488.82  389.97  8.69
429.5  4615.58  396.32  8.59
431.1  4756.23  401.51  8.44
432.6  4917.76  417.82  8.50
434.1  5064.68  431.20  8.51
435.6  5199.35  444.08  8.54
437.1  5333.25  458.90  8.60
438.6  5454.84  472.58  8.66
440.1  5584.70  482.74  8.64
441.6  5717.14  503.30  8.80
443.1  5852.25  521.78  8.92
444.7  5982.11  541.84  9.06
446.2  6104.50  566.95  9.29
447.7  6213.60  582.17  9.37
449.2  6315.84  610.20  9.66
450.7  6414.72  625.39  9.75
452.2  6543.45  637.97  9.75
453.7  6682.65  659.01  9.86
455.2  6842.54  677.32  9.90
456.7  7029.44  704.88  10.03
458.2  7231.16  735.70  10.17
459.7  7428.75  758.63  10.21
461.2  7633.63  784.84  10.28
462.7  7815.14  809.08  10.35
464.2  8000.76  837.53  10.47
465.7  8191.53  856.45  10.46
467.2  8352.58  881.01  10.55
468.7  8552.00  908.00  10.62
470.2  8711.17  935.98  10.74
471.7  8854.00  972.17  10.98
473.2  9050.37  1007.67  11.13
474.6  9252.88  1010.79  10.92
476.1  9378.88  1011.95  10.79
477.6  9464.51  1025.73  10.84
479.1  9567.20  1043.31  10.91
480.6  9658.16  1054.63  10.92
482.1  9797.74  1075.42  10.98
483.6  9963.22  1098.63  11.03
485.1  10140.49  1132.03  11.16
486.6  10356.19  1169.73  11.29
488.0  10562.50  1207.92  11.44
489.5  10784.97  1257.28  11.66
491.0  10998.86  1312.04  11.93
492.5  11224.98  1376.19  12.26
494.0  11462.99  1446.16  12.62
495.4  11663.85  1515.80  13.00
496.9  11870.36  1599.59  13.48
498.4  12074.30  1685.45  13.96
499.9  12278.41  1784.20  14.53
501.4  12476.75  1895.95  15.20
502.8  12664.51  2016.22  15.92
504.3  12846.60  2144.40  16.69
505.8  13033.73  2281.64  17.51
507.2  13172.68  2418.99  18.36
508.7  13289.99  2568.11  19.32
510.2  13412.81  2721.15  20.29
511.6  13494.72  2871.80  21.28
513.1  13630.43  3041.56  22.31
514.6  13795.53  3224.10  23.37
516.0  13946.28  3405.77  24.42
517.5  14135.83  3615.12  25.57
519.0  14365.19  3837.50  26.71
520.5  14579.60  4058.45  27.84
521.9  14828.55  4300.80  29.00
523.4  15093.49  4546.02  30.12
524.8  15349.14  4790.66  31.21
526.3  15633.70  5044.28  32.27
527.8  15915.89  5282.93  33.19
529.2  16178.21  5509.64  34.06
530.7  16455.24  5735.62  34.86
532.1  16698.15  5944.82  35.60
533.6  16994.07  6157.66  36.23
535.0  17295.55  6365.49  36.80
536.5  17581.25  6562.83  37.33
538.0  17895.84  6766.91  37.81
539.4  18160.64  6950.94  38.27
540.9  18488.86  7152.71  38.69
542.3  18738.28  7315.83  39.04
543.8  18940.29  7450.63  39.34
545.2  19020.35  7528.69  39.58
546.6  19057.19  7595.32  39.86
548.1  19121.11  7658.62  40.05
549.5  19166.91  7713.76  40.25
551.0  19217.70  7757.34  40.37
552.4  19311.21  7805.46  40.42
553.9  19371.38  7828.87  40.41
555.3  19461.20  7852.46  40.35
556.8  19596.88  7889.33  40.26
558.2  19743.75  7913.53  40.08
559.6  19902.71  7941.64  39.90
561.1  20117.50  7982.55  39.68
562.5  20332.52  8024.25  39.47
564.0  20611.34  8082.44  39.21
565.4  20865.50  8116.46  38.90
566.8  21177.73  8163.74  38.55
568.3  21463.05  8188.53  38.15
569.7  21776.78  8208.69  37.69
571.1  22080.65  8215.41  37.21
572.6  22373.82  8215.02  36.72
574.0  22675.95  8215.63  36.23
575.4  22958.44  8217.00  35.79
576.9  23231.09  8201.95  35.31
578.3  23477.03  8195.09  34.91
579.7  23721.74  8188.28  34.52
581.1  23920.49  8166.10  34.14
582.6  24132.47  8157.75  33.80
584.0  24305.80  8133.73  33.46
585.4  24549.94  8140.45  33.16
586.8  24845.17  8168.76  32.88
588.3  25201.80  8200.53  32.54
589.7  25517.70  8234.46  32.27
591.1  25735.55  8234.31  32.00
592.5  25883.00  8221.55  31.76
594.0  25998.42  8195.50  31.52
595.4  26057.54  8164.83  31.33
596.8  26115.38  8129.91  31.13
598.2  26174.55  8097.13  30.94
599.6  26202.06  8056.44  30.75
601.0  26298.70  8027.89  30.53
602.4  26372.18  7989.86  30.30
603.9  26501.77  7961.46  30.04
605.3  26625.41  7927.81  29.78
606.7  26749.80  7884.30  29.47
608.1  26941.18  7858.80  29.17
609.5  27151.69  7827.55  28.83
610.9  27387.74  7808.48  28.51
612.3  27589.20  7776.27  28.19
613.7  27871.80  7765.40  27.86
615.1  28061.64  7719.03  27.51
616.5  28235.16  7678.05  27.19
617.9  28534.12  7684.79  26.93
619.3  28808.15  7693.30  26.71
620.7  29149.14  7737.20  26.54
622.1  29527.66  7760.00  26.28
623.5  29951.83  7785.49  25.99
624.9  30436.35  7852.25  25.80
626.3  30757.12  7904.36  25.70
627.7  30461.43  7829.54  25.70
629.1  30188.34  7785.82  25.79
630.5  30083.03  7781.42  25.87
631.9  30076.12  7797.09  25.92
633.3  30078.24  7800.21  25.93
634.7  30183.54  7814.41  25.89
636.1  30268.81  7787.34  25.73
637.5  30374.19  7713.09  25.39
638.9  30520.15  7612.45  24.94
640.2  30643.60  7485.91  24.43
641.6  30733.56  7307.82  23.78
643.0  30777.50  7102.11  23.08
644.4  30869.16  6901.59  22.36
645.8  30855.38  6687.31  21.67
647.2  31023.20  6522.45  21.02
648.5  31185.15  6345.74  20.35
649.9  31117.13  6136.81  19.72
651.3  31099.80  5953.83  19.14
652.7  31059.00  5767.68  18.57
654.1  30961.56  5611.26  18.12
655.5  30829.51  5462.12  17.72
656.8  30685.81  5305.77  17.29
658.2  30861.69  5208.08  16.88
659.6  31181.89  5117.69  16.41
660.9  31452.29  5000.10  15.90
662.3  31767.46  4879.98  15.36
663.7  32102.70  4759.65  14.83
665.0  32334.98  4640.16  14.35
666.4  32575.38  4529.92  13.91
667.8  32873.84  4455.58  13.55
669.1  33084.01  4387.21  13.26
670.5  33327.47  4345.76  13.04
671.9  33513.12  4311.88  12.87
673.2  33742.50  4310.86  12.78
674.6  33950.66  4338.11  12.78
676.0  34219.05  4390.59  12.83
677.3  34494.18  4468.64  12.95
678.7  34767.13  4589.65  13.20
680.0  35103.31  4767.33  13.58
681.4  35420.13  5010.07  14.14
682.8  35763.00  5327.29  14.90
684.1  36073.44  5742.75  15.92
685.5  36318.59  6245.70  17.20
686.8  36607.26  6872.83  18.77
688.2  36844.31  7606.77  20.65
689.5  36898.97  8421.63  22.82
690.9  36950.15  9334.79  25.26
692.2  37008.15  10333.45  27.92
693.6  37024.93  11403.04  30.80
694.9  37005.38  12488.75  33.75
696.2  37027.13  13605.08  36.74
697.6  37047.86  14755.40  39.83
698.9  37049.76  15886.20  42.88
700.3  37075.62  17001.23  45.86
701.6  37124.24  18097.29  48.75
703.0  37178.40  19142.07  51.49
704.3  37172.20  20106.40  54.09
705.6  37157.22  21007.31  56.54
707.0  37168.46  21868.50  58.84
708.3  37076.04  22607.32  60.98
709.6  36967.81  23297.00  63.02
711.0  36867.73  23923.42  64.89
712.3  36770.31  24489.27  66.60
713.6  36755.88  25085.55  68.25
714.9  36684.64  25616.74  69.83
716.3  36701.44  26163.53  71.29
717.6  36734.04  26693.69  72.67
718.9  36680.73  27129.84  73.96
720.2  36496.25  27447.19  75.21
721.6  36394.28  27772.62  76.31
722.9  36240.12  28029.16  77.34
724.2  36067.30  28188.05  78.15
725.5  35963.70  28383.65  78.92
726.8  35833.96  28532.24  79.62
728.1  35810.80  28705.15  80.16
729.5  35779.10  28869.37  80.69
730.8  35779.13  29013.85  81.09
732.1  35704.25  29106.76  81.52
733.4  35690.92  29210.27  81.84
734.7  35685.89  29304.86  82.12
736.0  35729.66  29430.49  82.37
737.3  35717.44  29496.95  82.58
738.6  35830.21  29694.59  82.88
739.9  36014.88  29943.74  83.14
741.2  36161.58  30151.49  83.38
742.5  36363.94  30447.56  83.73
743.8  36737.66  30892.88  84.09
745.1  37309.08  31520.75  84.49
746.4  37926.98  32219.99  84.95
747.7  38536.99  32929.93  85.45
749.0  39118.92  33638.63  85.99
750.3  39493.02  34062.67  86.25
751.6  39440.80  34042.56  86.31
752.9  39084.79  33733.11  86.31
754.2  38731.25  33393.04  86.22
755.4  38386.91  33010.45  85.99
756.7  38244.09  32933.36  86.11
758.0  38261.36  33007.48  86.27
759.3  38489.95  33267.93  86.43
760.6  38786.44  33611.53  86.66
761.9  39062.28  33912.69  86.82
763.1  39197.21  34115.74  87.04
764.4  39371.54  34348.95  87.24
765.7  39490.75  34532.88  87.45
767.0  39577.16  34679.01  87.62
768.2  39644.64  34800.08  87.78
769.5  39697.68  34899.51  87.91
770.8  39836.32  35088.51  88.08
772.0  39856.44  35133.90  88.15
773.3  39898.95  35232.65  88.30
774.6  39978.84  35369.24  88.47
775.8  40054.79  35478.22  88.57
777.1  40085.96  35539.44  88.66
778.4  40059.57  35523.64  88.68
779.6  39999.54  35536.37  88.84
780.9  39948.00  35498.00  88.86
782.1  39837.20  35396.81  88.85
783.4  39802.88  35425.17  89.00
784.6  39851.08  35472.64  89.01
785.9  40095.40  35767.71  89.21
787.1  40531.58  36298.75  89.56
788.4  40834.19  36748.47  89.99
789.6  40796.10  36747.54  90.08
790.9  40479.11  36402.42  89.93
792.1  40128.24  36018.47  89.76
793.4  39739.41  35665.78  89.75
794.6  39507.48  35451.39  89.73
795.8  39314.07  35261.54  89.69
797.1  39097.95  35057.46  89.67
798.3  38940.83  34931.19  89.70
799.5  38821.14  34879.03  89.85
800.8  38733.05  34783.24  89.80
802.0  38591.76  34703.05  89.92
803.2  38469.72  34598.34  89.94
804.5  38377.94  34543.61  90.01
805.7  38264.87  34464.46  90.07
806.9  38181.95  34371.14  90.02
808.1  38074.65  34314.00  90.12
809.4  38033.33  34275.52  90.12
810.6  37951.55  34231.93  90.20
811.8  37942.61  34219.07  90.19
813.0  37965.80  34245.25  90.20
814.2  37975.49  34279.42  90.27
815.4  38039.93  34382.57  90.39
816.6  38032.65  34417.94  90.50
817.9  38050.16  34457.40  90.56
819.1  37997.24  34394.23  90.52
820.3  37865.18  34260.98  90.48
821.5  37787.61  34164.08  90.41
822.7  37714.41  34091.72  90.39
823.9  37704.87  34055.07  90.32
825.1  37688.07  34031.93  90.30
826.3  37716.38  34009.70  90.17
827.5  37726.06  33997.87  90.12
828.7  37779.60  33979.60  89.94
829.9  37796.29  33955.39  89.84
831.0  37849.02  33966.24  89.74
832.2  37913.75  33986.16  89.64
833.4  37950.44  34015.20  89.63
834.6  37978.13  34030.47  89.61
835.8  38031.53  34065.68  89.57
837.0  38073.26  34131.33  89.65
838.1  38178.69  34251.63  89.71
839.3  38239.24  34295.36  89.69
840.5  38296.24  34381.00  89.78
841.7  38381.58  34493.81  89.87
842.9  38485.06  34602.06  89.91
844.0  38543.94  34688.86  90.00
845.2  38626.85  34808.16  90.11
846.4  38724.98  34911.40  90.15
847.5  38888.12  35094.74  90.25
848.7  39002.30  35254.49  90.39
849.9  39141.74  35413.13  90.47
851.0  39173.78  35474.55  90.56
852.2  39245.07  35509.83  90.48
853.3  39202.67  35506.44  90.57
854.5  39188.19  35511.86  90.62
855.6  39170.88  35513.69  90.66
856.8  39193.80  35539.19  90.68
857.9  39192.81  35545.00  90.69
859.1  39326.60  35639.67  90.62
860.2  39300.24  35632.72  90.67
861.4  39344.78  35664.37  90.65
862.5  39384.29  35699.22  90.64
863.7  39467.66  35758.62  90.60
864.8  39454.45  35740.43  90.59
865.9  39398.65  35699.90  90.61
867.1  39448.45  35742.81  90.61
868.2  39441.53  35734.69  90.60
869.3  39465.67  35733.58  90.54
870.5  39438.89  35689.78  90.49
871.6  39473.54  35663.36  90.35
872.7  39541.37  35699.22  90.28
873.9  39548.50  35725.00  90.33
875.0  39546.05  35675.16  90.21
876.1  39583.15  35635.62  90.03
877.2  39616.79  35645.71  89.98
878.3  39601.98  35584.97  89.86
879.4  39662.11  35602.00  89.76
880.5  39702.60  35624.70  89.73
881.7  39698.10  35559.01  89.57
882.8  39775.46  35574.21  89.44
883.9  39785.32  35568.58  89.40
885.0  39766.55  35479.65  89.22
886.1  39735.85  35455.96  89.23
887.2  39664.66  35268.95  88.92
888.3  39567.00  35181.66  88.92
889.4  39535.02  35046.76  88.65
890.5  39459.91  34949.91  88.57
891.6  39428.33  34835.88  88.35
892.7  39429.01  34807.24  88.28
893.8  39492.50  34787.98  88.09
894.9  39505.51  34721.39  87.89
896.0  39527.49  34660.36  87.69
897.0  39487.40  34641.88  87.73
898.1  39490.45  34591.29  87.59
899.2  39536.22  34592.25  87.50
900.3  39503.73  34451.91  87.21
901.4  39454.09  34356.95  87.08
902.4  39461.49  34339.80  87.02
903.5  39418.10  34227.00  86.83
904.6  39431.18  34167.32  86.65
905.7  39454.64  34158.20  86.58
906.7  39397.52  34088.63  86.52
907.8  39514.80  34060.53  86.20
908.9  39443.33  33965.90  86.11
909.9  39411.21  33880.75  85.97
911.0  39357.50  33765.59  85.79
912.1  39280.99  33655.37  85.68
913.1  39233.48  33544.25  85.50
914.2  39173.92  33372.95  85.19
915.2  39170.79  33305.00  85.03
916.3  39094.50  33240.38  85.03
917.3  39076.47  33137.88  84.80
918.4  39031.30  32967.00  84.46
919.4  39022.48  32843.24  84.16
920.5  39026.74  32715.11  83.83
921.5  39018.63  32640.69  83.65
922.6  38959.72  32466.43  83.33
923.6  39026.05  32362.07  82.92
924.7  39022.50  32264.33  82.68
925.7  39030.84  32131.12  82.32
926.7  39009.32  32008.63  82.05
927.8  39032.57  31891.74  81.71
928.8  39142.62  31848.61  81.37
929.9  39330.10  31768.93  80.78
930.9  39447.46  31744.46  80.47
931.9  39602.61  31727.83  80.12
932.9  39864.58  31785.80  79.73
934.0  39909.81  31662.64  79.34
935.0  39942.68  31500.52  78.86
936.0  39929.50  31304.36  78.40
937.0  39883.94  31095.51  77.96
938.1  39848.52  30895.74  77.53
939.1  39753.89  30694.70  77.21
940.1  39867.76  30568.52  76.67
941.1  39995.43  30520.46  76.31
942.1  40229.45  30516.81  75.86
943.1  40393.76  30427.43  75.33
944.1  40552.56  30405.84  74.98
945.2  40570.32  30256.31  74.58
946.2  40685.67  30096.49  73.97
947.2  40740.25  29902.05  73.40
948.2  40874.09  29841.98  73.01
949.2  40954.06  29680.76  72.47
950.2  41026.00  29458.17  71.80
951.2  41012.16  29295.42  71.43
952.2  41170.94  29134.90  70.77
953.2  41257.13  28993.36  70.27
954.2  41395.95  28861.09  69.72
955.2  41401.94  28689.47  69.29
956.2  41391.82  28502.54  68.86
957.2  41524.97  28372.47  68.33
958.2  41486.28  28250.02  68.09
959.2  41625.00  28213.43  67.78
960.1  41647.94  28122.71  67.52
961.1  41725.78  28084.10  67.31
962.1  41752.50  27998.28  67.06
963.1  41720.60  27993.12  67.10
964.1  41837.60  28003.80  66.93
965.1  41932.95  28048.01  66.89
966.1  41961.44  28033.32  66.81
967.0  42058.17  28045.52  66.68
968.0  42094.69  27993.84  66.50
969.0  42115.20  28083.93  66.68
970.0  42092.26  28079.90  66.71
971.0  42266.18  28112.90  66.51
971.9  42275.33  28148.13  66.58
972.9  42388.85  28169.08  66.45
973.9  42492.13  28216.83  66.40
974.9  42580.28  28270.15  66.39
975.8  42630.52  28354.12  66.51
976.8  42806.43  28392.63  66.33
977.8  42848.34  28496.53  66.51
978.8  42868.95  28499.85  66.48
979.7  43050.58  28602.60  66.44
981.4  43484.76  26132.94  60.10
985.3  43466.28  26411.94  60.76
989.3  43739.41  26933.73  61.58
993.3  44088.36  27492.98  62.36
997.2  44246.85  27916.34  63.09
1001.2  44240.69  28260.48  63.88
1005.2  44147.66  28562.38  64.70
1009.1  44170.72  28945.09  65.53
1013.1  44298.35  29454.11  66.49
1017.1  44409.64  29982.19  67.51
1021.0  44418.65  30442.27  68.53
1025.0  44431.92  30875.05  69.49
1029.0  44310.95  31195.82  70.40
1032.9  44196.36  31503.85  71.28
1036.9  44214.81  31886.39  72.12
1040.9  44317.48  32350.93  73.00
1044.8  44471.57  32860.52  73.89
1048.8  44586.22  33308.27  74.71
1052.7  44660.98  33683.83  75.42
1056.7  44664.90  33959.04  76.03
1060.7  44652.74  34166.15  76.52
1064.6  44643.90  34315.27  76.86
1068.6  44545.19  34355.50  77.13
1072.5  44448.63  34335.81  77.25
1076.5  44390.31  34278.47  77.22
1080.4  44363.13  34195.59  77.08
1084.4  44428.99  34138.11  76.84
1088.3  44526.89  34051.46  76.47
1092.3  44515.11  33808.96  75.95
1096.2  44485.25  33533.50  75.38
1100.2  44489.30  33300.09  74.85
1104.1  44387.15  32945.79  74.22
1108.1  44344.78  32612.20  73.54
1112.0  44255.25  32229.57  72.83
1116.0  44078.91  31746.44  72.02
1119.9  43920.46  31225.30  71.10
1123.9  43980.05  30734.26  69.88
1127.8  43933.44  29971.20  68.22
1131.8  43891.20  28975.05  66.02
1135.7  43904.71  27821.89  63.37
1139.6  43873.24  26562.28  60.54
1143.6  43814.30  25341.06  57.84
1147.5  43764.96  24296.80  55.52
1151.4  43600.54  23411.46  53.70
1155.4  43567.43  22842.19  52.43
1159.3  43548.37  22489.87  51.64
1163.2  43379.84  22171.04  51.11
1167.2  43333.14  22007.00  50.79
1171.1  43320.14  21906.66  50.57
1175.0  43247.45  21785.50  50.37
1179.0  43203.54  21674.08  50.17
1182.9  43281.26  21630.18  49.98
1186.8  43262.79  21552.41  49.82
1190.7  43059.97  21381.46  49.66
1194.7  42822.73  21215.49  49.54
1198.6  42602.18  21104.16  49.54
1202.5  42456.57  21044.07  49.57
1206.4  42335.53  21010.76  49.63
1210.3  42230.32  21012.23  49.76
1214.2  42126.94  21046.63  49.96
1218.2  41984.08  21083.92  50.22
1222.1  41854.50  21136.85  50.50
1226.0  41760.57  21214.17  50.80
1229.9  41673.90  21279.50  51.06
1233.8  41576.55  21338.81  51.32
1237.7  41528.30  21421.99  51.58
1241.6  41457.25  21471.06  51.79
1245.5  41309.15  21472.26  51.98
1249.4  41175.26  21478.15  52.16
1253.3  41058.30  21491.60  52.34
1257.2  40978.33  21507.44  52.48
1261.1  40873.57  21488.98  52.57
1265.0  40757.89  21444.56  52.61
1268.9  40587.74  21342.49  52.58
1272.8  40626.75  21339.85  52.53
1276.7  40780.33  21366.82  52.39
1280.6  40842.56  21316.50  52.19
1284.5  40748.73  21158.18  51.92
1288.4  40697.88  20984.62  51.56
1292.3  40562.50  20742.33  51.14
1296.2  40411.46  20456.32  50.62
1300.1  40239.63  20126.95  50.02
1303.9  40009.73  19721.19  49.29
1307.8  39785.54  19296.13  48.50
1311.7  39554.21  18828.80  47.60
1315.6  39326.35  18322.68  46.59
1319.5  39086.11  17789.55  45.51
1323.3  38870.69  17261.03  44.41
1327.2  38681.53  16734.10  43.26
1331.1  38474.56  16188.91  42.08
1335.0  38203.08  15635.71  40.93
1338.8  38009.09  15147.10  39.85
1342.7  37876.27  14712.56  38.84
1346.5  37598.34  14239.49  37.87
1350.4  37400.07  13819.98  36.95
1354.3  37094.65  13389.87  36.10
1358.1  36731.71  12951.44  35.26
1362.0  36487.36  12558.24  34.42
1365.8  36370.47  12185.92  33.50
1369.7  36432.94  11832.08  32.48
1373.5  36366.82  11360.26  31.24
1377.4  36166.21  10742.81  29.70
1381.2  35990.96  10038.42  27.89
1385.1  35936.27  9300.40  25.88
1389.0  35813.45  8545.10  23.86
1392.8  35598.92  7813.76  21.95
1396.6  35460.61  7155.32  20.18
1400.5  35253.63  6579.12  18.66
1404.3  35072.57  6112.91  17.43
1408.2  35016.72  5750.35  16.42
1412.0  34945.02  5459.35  15.62
1415.8  34962.39  5252.99  15.02
1419.6  34891.95  5087.47  14.58
1423.5  34842.23  4959.63  14.23
1427.3  34796.45  4859.14  13.96
1431.1  34758.75  4789.50  13.78
1434.9  34669.05  4726.90  13.63
1438.8  34606.94  4684.02  13.53
1442.6  34573.84  4650.62  13.45
1446.4  34441.31  4618.45  13.41
1450.2  34332.12  4609.02  13.42
1454.0  34220.52  4594.20  13.43
1457.8  34188.19  4602.07  13.46
1461.6  34155.00  4621.55  13.53
1465.4  34045.70  4639.77  13.63
1469.2  33870.20  4673.61  13.80
1473.0  33726.92  4720.98  14.00
1476.8  33664.28  4796.71  14.25
1480.7  33601.58  4890.73  14.56
1484.4  33488.64  4990.16  14.90
1488.2  33386.04  5111.00  15.31
1492.0  33257.25  5233.23  15.74
1495.8  33142.20  5354.60  16.16
1499.6  33034.11  5456.68  16.52
1503.4  32933.47  5543.06  16.83
1507.2  32852.74  5632.63  17.15
1510.9  32722.34  5713.79  17.46
1514.7  32573.11  5781.11  17.75
1518.5  32453.90  5860.16  18.06
1522.3  32317.90  5935.13  18.36
1526.0  32200.64  6008.06  18.66
1529.8  32127.61  6100.48  18.99
1533.6  32011.66  6187.71  19.33
1537.3  31894.88  6268.21  19.65
1541.1  31782.08  6349.53  19.98
1544.8  31651.20  6431.20  20.32
1548.6  31528.46  6497.21  20.61
1552.4  31450.00  6573.43  20.90
1556.1  31366.15  6674.09  21.28
1559.9  31270.43  6772.63  21.66
1563.6  31150.17  6862.00  22.03
1567.3  31046.10  6960.48  22.42
1571.1  30855.35  7030.27  22.78
1574.8  30723.08  7113.26  23.15
1578.6  30633.26  7197.43  23.50
1582.3  30519.48  7250.62  23.76
1586.0  30400.45  7290.23  23.98
1589.8  30269.89  7329.48  24.21
1593.5  30123.48  7366.94  24.46
1597.2  29998.09  7414.29  24.72
1600.9  29883.71  7456.51  24.95
1604.7  29753.95  7490.95  25.18
1608.4  29639.51  7533.19  25.42
1612.1  29489.62  7559.84  25.64
1615.8  29365.23  7591.73  25.85
1619.5  29298.37  7633.27  26.05
1623.2  29161.12  7656.40  26.26
1626.9  29003.45  7670.47  26.45
1630.6  28846.40  7679.47  26.62
1634.3  28721.00  7694.88  26.79
1638.0  28599.28  7702.34  26.93
1641.7  28456.49  7704.01  27.07
1645.4  28299.47  7696.71  27.20
1649.1  28138.66  7675.55  27.28
1652.8  28008.70  7657.32  27.34
1656.4  27859.80  7630.76  27.39
1660.1  27720.43  7608.00  27.45
1663.8  27551.22  7572.82  27.49
1667.5  27406.07  7537.43  27.50
1671.1  27282.14  7507.91  27.52
1674.8  27100.13  7453.94  27.51
1678.5  27060.12  7419.98  27.42
1682.1  27085.37  7393.66  27.30
1685.8  27087.74  7366.46  27.19
1689.5  26985.46  7306.40  27.08
1693.1  26859.21  7231.66  26.92
1696.8  26718.75  7160.63  26.80
1700.4  26575.97  7075.34  26.62
1704.0  26457.91  6989.42  26.42
1707.7  26210.69  6872.67  26.22
1711.3  25940.59  6745.22  26.00
1715.0  25755.85  6632.63  25.75
1718.6  25603.66  6525.90  25.49
1722.2  25471.82  6428.56  25.24
1725.9  25346.15  6332.52  24.98
1729.5  25225.17  6245.59  24.76
1733.1  25122.33  6181.43  24.61
1736.7  25028.77  6127.84  24.48
1740.3  24869.68  6059.35  24.36
1744.0  24796.20  5998.78  24.19
1747.5  24670.34  5914.54  23.97
1751.2  24460.97  5802.88  23.72
1754.8  24300.77  5710.49  23.50
1758.4  24168.99  5625.44  23.28
1762.0  24004.67  5530.54  23.04
1765.5  23878.06  5459.66  22.86
1769.1  23824.80  5423.20  22.76
1772.7  23745.17  5380.27  22.66
1776.3  23631.64  5328.35  22.55
1779.9  23517.13  5276.71  22.44
1783.5  23453.36  5247.68  22.37
1787.0  23338.16  5202.92  22.29
1790.6  23194.11  5158.43  22.24
1794.2  23099.94  5136.42  22.24
1797.8  23019.59  5110.62  22.20
1801.3  22943.45  5098.54  22.22
1804.9  22821.75  5072.38  22.23
1808.4  22758.56  5056.87  22.22
1812.0  22651.25  5036.33  22.23
1815.5  22537.46  5008.63  22.22
1819.1  22377.91  4970.66  22.21
1822.6  22230.86  4931.21  22.18
1826.2  22108.08  4895.29  22.14
1829.7  21962.63  4857.24  22.12
1833.2  21769.52  4801.31  22.06
1836.8  21568.82  4736.10  21.96
1840.3  21408.35  4684.41  21.88
1843.8  21283.15  4625.93  21.74
1847.3  21175.36  4580.11  21.63
1850.8  21026.88  4531.97  21.55
1854.3  20829.70  4462.21  21.42
1857.8  20716.80  4354.13  21.02
1861.3  20743.52  4212.88  20.31
1864.8  20771.48  4032.02  19.41
1868.3  20668.83  3745.95  18.12
1871.8  20505.60  3440.64  16.78
1875.3  20412.67  3168.78  15.52
1878.8  20386.82  2936.34  14.40
1882.3  20318.80  2720.66  13.39
1885.8  20165.84  2516.38  12.48
1889.3  19976.70  2349.38  11.76
1892.7  19815.25  2198.74  11.10
1896.2  19650.94  2099.83  10.69
1899.7  19441.16  2089.74  10.75
1901.7  18493.24  1336.34  7.23
1904.5  18663.12  1276.65  6.84
1907.2  18605.75  1260.33  6.77
1910.0  18464.96  1239.36  6.71
1912.7  18451.36  1203.67  6.52
1915.5  18338.72  1197.99  6.53
1918.2  18231.61  1199.94  6.58
1921.0  18078.76  1178.20  6.52
1923.7  18082.37  1178.37  6.52
1926.5  18028.91  1168.06  6.48
1929.2  17989.40  1154.40  6.42
1932.0  17961.44  1181.84  6.58
1934.7  17922.05  1174.58  6.55
1937.4  17800.47  1146.58  6.44
1940.2  17730.06  1164.80  6.57
1942.9  17801.07  1183.49  6.65
1945.6  17808.94  1188.87  6.68
1948.3  17731.12  1199.33  6.76
1951.1  17698.80  1230.09  6.95
1953.8  17700.00  1223.00  6.91
1956.5  17568.67  1221.96  6.96
1959.2  17632.03  1274.74  7.23
1961.9  17647.56  1281.40  7.26
1964.6  17543.58  1288.18  7.34
1967.3  17598.27  1297.42  7.37
1970.0  17419.60  1279.71  7.35
1972.8  17335.24  1311.01  7.56
1975.5  17419.52  1341.39  7.70
1978.2  17336.04  1336.39  7.71
1980.9  17221.82  1343.82  7.80
1983.5  17185.34  1366.92  7.95
1986.2  17183.55  1391.95  8.10
1988.9  17157.36  1390.98  8.11
1991.6  17017.92  1396.19  8.20
1994.3  16893.86  1420.10  8.41
1997.0  16913.63  1448.39  8.56
1999.7  16876.79  1455.94  8.63
2002.3  16857.27  1476.69  8.76
2005.0  16785.35  1492.99  8.89
2007.7  16706.93  1495.44  8.95
2010.4  16656.07  1499.83  9.00
2013.0  16600.58  1531.56  9.23
2015.7  16495.88  1542.08  9.35
2018.4  16401.61  1523.29  9.29
2021.0  16371.00  1549.84  9.47
2023.7  16264.64  1558.44  9.58
2026.4  16195.83  1567.01  9.68
2029.0  16138.97  1582.97  9.81
2031.7  16029.65  1579.21  9.85
2034.3  16012.75  1592.36  9.94
2037.0  15932.90  1604.55  10.07
2039.6  15864.39  1605.48  10.12
2042.3  15822.15  1606.37  10.15
2044.9  15747.27  1632.51  10.37
2047.5  15719.22  1638.12  10.42
2050.2  15638.00  1624.93  10.39
2052.8  15596.00  1652.93  10.60
2055.4  15487.61  1654.85  10.68
2058.1  15363.60  1661.33  10.81
2060.7  15311.01  1683.52  11.00
2063.3  15243.07  1672.00  10.97
2065.9  15200.63  1677.79  11.04
2068.6  15142.00  1692.68  11.18
2071.2  15102.27  1701.90  11.27
2073.8  15013.06  1692.99  11.28
2076.4  14939.89  1689.61  11.31
2079.0  14937.96  1703.80  11.41
2081.6  14955.68  1723.64  11.52
2084.2  14929.44  1726.86  11.57
2086.8  14795.01  1737.54  11.74
2089.4  14708.12  1757.79  11.95
2092.1  14645.50  1755.72  11.99
2094.7  14574.18  1759.04  12.07
2097.2  14543.50  1766.11  12.14
2099.8  14569.24  1773.47  12.17
2102.4  14455.51  1783.72  12.34
2105.0  14315.55  1776.50  12.41
2107.6  14281.54  1786.85  12.51
2110.2  14245.28  1808.25  12.69
2112.8  14225.04  1815.35  12.76
2115.3  14222.61  1825.33  12.83
2117.9  14223.97  1820.32  12.80
2120.5  14225.20  1827.71  12.85
2123.1  14136.53  1854.45  13.12
2125.6  14079.43  1869.25  13.28
2128.2  14012.88  1862.34  13.29
2130.8  13940.55  1854.45  13.30
2133.3  13889.33  1855.82  13.36
2135.9  13802.30  1859.14  13.47
2138.4  13704.95  1847.56  13.48
2141.0  13601.55  1840.38  13.53
2143.6  13585.34  1847.93  13.60
2146.1  13439.94  1854.09  13.80
2148.7  13282.54  1835.42  13.82
2151.2  13302.67  1832.36  13.77
2153.8  13324.47  1852.34  13.90
2156.3  13227.98  1846.82  13.96
2158.8  13160.05  1839.92  13.98
2161.4  13128.93  1844.67  14.05
2163.9  13034.58  1833.87  14.07
2166.4  12973.85  1841.02  14.19
2169.0  12959.07  1849.89  14.27
2171.5  12876.28  1837.08  14.27
2174.0  12786.55  1830.62  14.32
2176.5  12767.30  1831.87  14.35
2179.1  12718.27  1817.04  14.29
2181.6  12644.21  1797.63  14.22
2184.1  12612.60  1815.15  14.39
2186.6  12631.79  1822.33  14.43
2189.1  12551.10  1807.23  14.40
2191.6  12501.53  1810.82  14.48
2194.1  12512.72  1813.63  14.49
2196.6  12513.32  1813.82  14.50
2199.2  12564.98  1816.26  14.45
2201.7  12503.60  1812.33  14.49
2204.1  12450.01  1801.96  14.47
2206.6  12458.20  1815.27  14.57
2209.1  12429.94  1815.54  14.61
2211.6  12413.54  1818.32  14.65
2214.1  12385.83  1818.47  14.68
2216.6  12340.79  1801.68  14.60
2219.1  12355.98  1808.01  14.63
2221.6  12303.15  1777.71  14.45
2224.0  12230.10  1760.22  14.39
2226.5  12198.83  1768.06  14.49
2229.0  12234.63  1761.22  14.40
2231.5  12152.59  1713.29  14.10
2233.9  12137.64  1690.70  13.93
2236.4  12131.98  1708.69  14.08
2238.9  12024.13  1695.96  14.10
2241.3  12068.10  1679.04  13.91
2243.8  12017.57  1654.42  13.77
2246.2  11870.35  1610.11  13.56
2248.7  11882.39  1604.38  13.50
2251.2  11860.53  1612.92  13.60
2253.6  11784.96  1585.92  13.46
2256.1  11773.44  1556.48  13.22
2258.5  11793.92  1558.44  13.21
2260.9  11696.75  1530.17  13.08
2263.4  11668.53  1498.23  12.84
2265.8  11678.48  1489.94  12.76
2268.3  11583.48  1481.61  12.79
2270.7  11653.18  1482.88  12.73
2273.1  11608.55  1445.80  12.45
2275.6  11523.84  1433.60  12.44
2278.0  11553.06  1423.31  12.32
2280.4  11529.61  1427.73  12.38
2282.8  11402.06  1398.96  12.27
2285.3  11435.59  1363.51  11.92
2287.7  11531.47  1379.77  11.97
2290.1  11440.95  1345.45  11.76
2292.5  11408.96  1324.10  11.61
2294.9  11404.51  1314.59  11.53
2297.3  11303.39  1264.29  11.19
2299.7  11233.01  1231.88  10.97
2302.1  11231.11  1236.12  11.01
2304.5  11113.20  1223.04  11.01
2306.9  10995.60  1189.07  10.81
2309.3  10932.15  1163.74  10.65
2311.7  10856.55  1155.26  10.64
2314.1  10708.33  1167.06  10.90
2316.5  10641.94  1168.87  10.98
2318.9  10674.03  1164.11  10.91
2321.3  10672.73  1176.61  11.02
2323.7  10642.23  1183.36  11.12
2326.1  10606.96  1151.24  10.85
2328.4  10691.58  1135.06  10.62
2330.8  10736.25  1150.65  10.72
2333.2  10617.06  1138.04  10.72
2335.6  10582.60  1125.10  10.63
2337.9  10642.00  1115.67  10.48
2340.3  10592.40  1083.17  10.23
2342.7  10507.23  1087.54  10.35
2345.0  10502.01  1064.50  10.14
2347.4  10493.25  1032.75  9.84
2349.7  10277.63  1023.78  9.96
2352.1  10236.25  1024.91  10.01
2354.4  10290.21  1017.27  9.89
2356.8  10243.45  1021.61  9.97
2359.2  10187.67  1038.56  10.19
2361.5  10122.93  991.93  9.80
2363.8  10144.75  972.02  9.58
2366.2  10159.49  978.29  9.63
2368.5  10097.05  979.00  9.70
2370.9  10118.68  963.26  9.52
2373.2  10072.53  978.77  9.72
2375.5  9932.38  957.79  9.64
2377.9  9918.93  922.31  9.30
2380.2  9923.89  940.77  9.48
2382.5  9856.28  923.60  9.37
2384.8  9822.88  889.33  9.05
2387.2  9807.99  884.53  9.02
2389.5  9759.69  875.08  8.97
2391.8  9772.85  852.43  8.72
2394.1  9716.63  881.29  9.07
2396.4  9652.48  904.77  9.37
2398.7  9714.10  859.04  8.84
2401.0  9598.25  850.54  8.86
2403.3  9511.80  846.60  8.90
2405.6  9521.83  816.39  8.57
2407.9  9458.88  831.66  8.79
2410.2  9400.00  817.18  8.69
2412.5  9350.27  802.90  8.59
2414.8  9330.30  799.35  8.57
2417.1  9280.68  793.18  8.55
2419.4  9294.64  753.71  8.11
2421.7  9214.94  762.22  8.27
2424.0  9156.02  771.37  8.42
2426.2  9223.40  727.60  7.89
2428.5  9129.27  728.32  7.98
2430.8  9112.40  710.32  7.80
2433.1  9071.93  708.06  7.80
2435.4  8991.17  732.95  8.15
2437.6  8963.19  718.03  8.01
2439.9  8866.09  703.75  7.94
2442.2  8873.80  669.33  7.54
2444.4  8827.50  670.06  7.59
2446.7  8812.56  677.44  7.69
2448.9  8870.66  657.30  7.41
2451.2  8802.92  671.49  7.63
2453.4  8732.64  646.86  7.41
2455.7  8702.87  685.20  7.87
2457.9  8608.05  679.69  7.90
2460.2  8594.01  632.94  7.36
2462.4  8611.20  676.00  7.85
2464.7  8503.63  643.45  7.57
2466.9  8416.62  609.90  7.25
2469.2  8471.54  646.00  7.63
2471.4  8370.38  614.93  7.35
2473.6  8261.63  566.85  6.86
2475.9  8256.69  555.41  6.73
2478.1  8211.66  560.20  6.82
2480.3  8173.00  536.05  6.56
2482.5  8177.69  531.36  6.50
2484.8  8119.06  538.84  6.64
2487.0  8110.30  525.87  6.48
2489.2  8058.48  572.91  7.11
2491.4  7946.29  550.76  6.93
2493.6  7987.26  519.95  6.51
2495.8  7981.68  525.25  6.58
2498.0  7985.07  494.51  6.19
2500.2  7961.63  511.12  6.42
2502.4  8125.20  518.00  6.38
2504.6  8272.59  532.10  6.43
2506.8  8348.61  584.50  7.00
