/*** Spectra Vista SIG Data ***/
name= RS.sig
comm= Averaged Ref/Tar of files: RS1,RS2,RS3
data=
346.4  468.20  42.89  9.16
347.9  473.76  42.88  9.05
349.5  521.04  44.93  8.62
351.1  558.48  43.68  7.82
352.6  585.06  45.33  7.75
354.2  625.05  46.03  7.36
355.7  673.50  46.47  6.90
357.3  724.71  50.86  7.02
358.8  751.43  48.93  6.51
360.4  798.47  51.59  6.46
361.9  821.87  47.36  5.76
363.5  851.78  51.71  6.07
365.1  887.68  49.70  5.60
366.6  918.37  49.71  5.41
368.2  973.68  49.24  5.06
369.7  1008.89  48.54  4.81
371.3  1073.36  49.83  4.64
372.8  1148.72  51.57  4.49
374.4  1191.49  51.40  4.31
375.9  1247.87  49.43  3.96
377.4  1278.23  50.74  3.97
379.0  1330.29  54.53  4.10
380.5  1360.26  50.47  3.71
382.1  1412.49  49.64  3.51
383.6  1460.03  50.84  3.48
385.2  1529.00  50.60  3.31
386.7  1608.26  51.62  3.21
388.3  1679.42  52.54  3.13
389.8  1759.55  53.07  3.02
391.3  1843.67  56.44  3.06
392.9  1897.62  56.33  2.97
394.4  1955.58  61.13  3.13
395.9  2019.02  64.27  3.18
397.5  2131.80  66.32  3.11
399.0  2240.25  65.71  2.93
400.6  2303.62  63.39  2.75
402.1  2342.64  57.79  2.47
403.6  2375.92  58.50  2.46
405.1  2451.81  54.69  2.23
406.7  2542.40  56.90  2.24
408.2  2650.73  59.25  2.24
409.7  2746.24  59.14  2.15
411.3  2843.51  62.12  2.18
412.8  2936.43  62.41  2.13
414.3  3034.90  66.41  2.19
415.8  3152.50  67.83  2.15
417.4  3253.58  68.98  2.12
418.9  3339.60  69.32  2.08
420.4  3424.70  70.62  2.06
421.9  3487.22  69.54  1.99
423.5  3546.87  69.58  1.96
425.0  3613.98  66.98  1.85
426.5  3695.85  68.08  1.84
428.0  3801.23  67.73  1.78
429.5  3926.30  67.55  1.72
431.1  4071.24  70.43  1.73
432.6  4225.66  69.34  1.64
434.1  4373.60  72.00  1.65
435.6  4514.36  72.89  1.61
437.1  4642.95  73.06  1.57
438.6  4769.06  75.98  1.59
440.1  4906.69  77.18  1.57
441.6  5042.30  80.63  1.60
443.1  5179.95  81.00  1.56
444.7  5318.34  83.84  1.58
446.2  5433.01  85.32  1.57
447.7  5551.25  87.16  1.57
449.2  5676.48  86.97  1.53
450.7  5788.64  87.36  1.51
452.2  5916.62  85.15  1.44
453.7  6028.91  85.55  1.42
455.2  6201.73  86.40  1.39
456.7  6390.56  89.17  1.40
458.2  6607.30  92.04  1.39
459.7  6823.25  92.63  1.36
461.2  7031.76  93.78  1.33
462.7  7219.07  97.61  1.35
464.2  7396.86  100.41  1.36
465.7  7583.22  101.26  1.34
467.2  7742.35  104.98  1.36
468.7  7912.00  108.53  1.37
470.2  8015.91  113.65  1.42
471.7  8177.13  118.12  1.44
473.2  8446.52  117.96  1.40
474.6  8688.33  115.87  1.33
476.1  8747.12  111.37  1.27
477.6  8779.39  110.67  1.26
479.1  8829.54  111.18  1.26
480.6  8916.06  112.34  1.26
482.1  9046.91  110.80  1.22
483.6  9204.08  112.44  1.22
485.1  9394.00  112.17  1.19
486.6  9626.34  115.10  1.20
488.0  9867.00  117.00  1.19
489.5  10130.90  118.22  1.17
491.0  10387.73  122.34  1.18
492.5  10649.88  124.31  1.17
494.0  10928.34  128.18  1.17
495.4  11158.95  130.35  1.17
496.9  11406.10  132.48  1.16
498.4  11649.48  135.40  1.16
499.9  11878.23  137.40  1.16
501.4  12101.58  140.18  1.16
502.8  12308.24  142.15  1.15
504.3  12497.40  143.88  1.15
505.8  12681.02  147.06  1.16
507.2  12808.72  147.43  1.15
508.7  12896.48  148.21  1.15
510.2  12964.78  150.85  1.16
511.6  13008.39  151.55  1.17
513.1  13093.74  149.85  1.14
514.6  13195.49  150.59  1.14
516.0  13281.41  150.92  1.14
517.5  13429.99  150.62  1.12
519.0  13603.01  151.43  1.11
520.5  13772.72  152.63  1.11
521.9  13993.28  154.26  1.10
523.4  14243.35  156.31  1.10
524.8  14493.24  160.51  1.11
526.3  14778.04  162.77  1.10
527.8  15074.01  166.03  1.10
529.2  15339.71  168.88  1.10
530.7  15629.94  173.36  1.11
532.1  15903.48  176.00  1.11
533.6  16214.37  180.12  1.11
535.0  16534.98  182.95  1.11
536.5  16856.03  187.82  1.11
538.0  17178.24  191.73  1.12
539.4  17501.02  197.12  1.13
540.9  17879.62  202.68  1.13
542.3  18237.67  204.85  1.12
543.8  18504.51  206.05  1.11
545.2  18600.74  209.08  1.12
546.6  18637.00  209.33  1.12
548.1  18690.38  209.48  1.12
549.5  18745.60  210.10  1.12
551.0  18790.92  210.86  1.12
552.4  18868.34  210.44  1.12
553.9  18922.09  212.65  1.12
555.3  18999.63  212.94  1.12
556.8  19143.87  214.28  1.12
558.2  19276.31  216.56  1.12
559.6  19441.66  218.02  1.12
561.1  19660.88  220.57  1.12
562.5  19883.82  224.46  1.13
564.0  20177.05  230.04  1.14
565.4  20444.07  234.51  1.15
566.8  20774.24  240.42  1.16
568.3  21077.79  245.21  1.16
569.7  21403.31  252.14  1.18
571.1  21706.83  260.82  1.20
572.6  22010.94  267.84  1.22
574.0  22299.75  277.53  1.24
575.4  22570.31  286.54  1.27
576.9  22820.49  297.76  1.30
578.3  23040.88  309.00  1.34
579.7  23243.15  320.42  1.38
581.1  23410.31  334.45  1.43
582.6  23592.46  348.01  1.48
584.0  23735.52  360.82  1.52
585.4  23971.18  379.64  1.58
586.8  24286.87  401.45  1.65
588.3  24642.54  422.92  1.72
589.7  24935.04  444.91  1.78
591.1  25126.37  465.96  1.85
592.5  25213.30  487.04  1.93
594.0  25248.06  508.09  2.01
595.4  25246.58  530.47  2.10
596.8  25248.80  554.27  2.20
598.2  25256.70  582.50  2.31
599.6  25254.00  607.34  2.40
601.0  25321.45  639.34  2.52
602.4  25392.58  671.90  2.65
603.9  25508.50  704.62  2.76
605.3  25652.08  742.63  2.89
606.7  25770.60  779.88  3.03
608.1  26003.60  821.57  3.16
609.5  26249.20  868.70  3.31
610.9  26543.12  916.74  3.45
612.3  26820.62  966.78  3.60
613.7  27191.20  1022.37  3.76
615.1  27470.34  1075.46  3.91
616.5  27748.85  1129.28  4.07
617.9  28163.94  1194.72  4.24
619.3  28559.37  1264.74  4.43
620.7  29021.55  1341.42  4.62
622.1  29524.34  1372.45  4.65
623.5  30070.32  1372.51  4.56
624.9  30686.25  1376.66  4.49
626.3  31117.56  1390.63  4.47
627.7  30854.43  1405.37  4.55
629.1  30617.27  1449.03  4.73
630.5  30534.25  1517.33  4.97
631.9  30583.88  1604.39  5.25
633.3  30636.73  1696.11  5.54
634.7  30802.72  1793.42  5.82
636.1  30887.16  1873.13  6.06
637.5  30991.21  1951.74  6.30
638.9  31137.59  2034.83  6.53
640.2  31275.86  2116.44  6.77
641.6  31334.94  2189.93  6.99
643.0  31307.82  2254.96  7.20
644.4  31297.86  2308.14  7.37
645.8  31223.60  2345.30  7.51
647.2  31327.01  2389.81  7.63
648.5  31378.61  2431.77  7.75
649.9  31215.99  2456.75  7.87
651.3  31061.55  2489.99  8.02
652.7  30880.50  2506.14  8.12
654.1  30705.72  2432.12  7.92
655.5  30448.41  2336.97  7.68
656.8  30219.54  2252.35  7.45
658.2  30347.48  2203.21  7.26
659.6  30667.01  2169.02  7.07
660.9  30915.41  2136.33  6.91
662.3  31175.28  2096.89  6.73
663.7  31418.10  2053.24  6.54
665.0  31622.76  2005.17  6.34
666.4  31821.65  1964.23  6.17
667.8  32088.83  1932.39  6.02
669.1  32304.87  1898.44  5.88
670.5  32567.66  1876.92  5.76
671.9  32723.64  1858.44  5.68
673.2  32957.22  1856.45  5.63
674.6  33165.65  1865.39  5.62
676.0  33416.99  1889.56  5.65
677.3  33670.84  1927.82  5.73
678.7  33959.63  1984.05  5.84
680.0  34360.72  2073.35  6.03
681.4  34770.40  2196.21  6.32
682.8  35166.95  2360.39  6.71
684.1  35575.02  2574.47  7.24
685.5  35948.61  2838.47  7.90
686.8  36307.14  3153.56  8.69
688.2  36654.12  3509.51  9.57
689.5  36792.82  3891.00  10.58
690.9  36894.22  4305.81  11.67
692.2  37000.50  4730.59  12.79
693.6  37086.31  5176.38  13.96
694.9  37102.94  5589.62  15.07
696.2  37172.03  5987.65  16.11
697.6  37238.58  6363.70  17.09
698.9  37321.68  6736.05  18.05
700.3  37412.04  7095.08  18.96
701.6  37521.51  7441.24  19.83
703.0  37648.39  7762.67  20.62
704.3  37727.46  8024.33  21.27
705.6  37779.39  8289.46  21.94
707.0  37853.11  8528.38  22.53
708.3  37804.36  8708.73  23.04
709.6  37779.31  8882.75  23.51
711.0  37700.05  9014.49  23.91
712.3  37603.29  9140.79  24.31
713.6  37599.66  9271.98  24.66
714.9  37564.50  9397.64  25.02
716.3  37606.65  9521.76  25.32
717.6  37655.10  9654.27  25.64
718.9  37643.31  9733.85  25.86
720.2  37519.65  9748.38  25.98
721.6  37437.79  9789.46  26.15
722.9  37295.06  9841.14  26.39
724.2  37099.21  9861.25  26.58
725.5  36957.59  9913.57  26.82
726.8  36833.83  9917.34  26.92
728.1  36764.75  9929.63  27.01
729.5  36694.32  9946.63  27.11
730.8  36660.60  9969.98  27.20
732.1  36590.42  9989.60  27.30
733.4  36549.03  10007.52  27.38
734.7  36509.02  10005.13  27.40
736.0  36510.50  10030.53  27.47
737.3  36452.29  10045.79  27.56
738.6  36538.42  10104.54  27.65
739.9  36706.85  10220.55  27.84
741.2  36841.35  10270.44  27.88
742.5  37078.82  10383.08  28.00
743.8  37494.19  10555.55  28.15
745.1  38118.44  10785.42  28.29
746.4  38876.11  10993.35  28.28
747.7  39639.96  11179.25  28.20
749.0  40400.48  11363.63  28.13
750.3  40850.46  11415.93  27.95
751.6  40764.46  11368.32  27.89
752.9  40356.61  11295.07  27.99
754.2  39863.99  11216.30  28.14
755.4  39350.05  11112.98  28.24
756.7  39155.03  11128.86  28.42
758.0  39142.09  11185.14  28.58
759.3  39351.46  11309.20  28.74
760.6  39645.76  11484.70  28.97
761.9  39928.94  11637.21  29.14
763.1  40078.15  11702.33  29.20
764.4  40287.45  11798.87  29.29
765.7  40433.25  11869.43  29.36
767.0  40515.07  11914.76  29.41
768.2  40595.52  11966.30  29.48
769.5  40644.33  12003.86  29.53
770.8  40787.04  12072.66  29.60
772.0  40799.41  12090.34  29.63
773.3  40833.29  12142.60  29.74
774.6  40907.98  12196.62  29.81
775.8  40955.53  12215.40  29.83
777.1  40964.33  12235.68  29.87
778.4  40867.87  12210.47  29.88
779.6  40816.98  12226.75  29.96
780.9  40688.00  12233.33  30.07
782.1  40484.72  12202.84  30.14
783.4  40464.32  12206.27  30.17
784.6  40463.12  12230.53  30.23
785.9  40670.74  12374.42  30.43
787.1  41171.80  12566.83  30.52
788.4  41528.97  12610.78  30.37
789.6  41482.13  12435.96  29.98
790.9  41134.16  12212.05  29.69
792.1  40655.28  12086.78  29.73
793.4  40180.32  11977.41  29.81
794.6  39846.60  11886.16  29.83
795.8  39587.54  11827.59  29.88
797.1  39290.10  11762.33  29.94
798.3  39054.26  11733.98  30.05
799.5  38943.25  11700.61  30.05
800.8  38778.22  11666.60  30.09
802.0  38618.88  11616.10  30.08
803.2  38465.20  11542.88  30.01
804.5  38332.71  11503.73  30.01
805.7  38219.65  11458.51  29.98
806.9  38073.35  11418.39  29.99
808.1  37984.05  11412.88  30.05
809.4  37906.28  11417.26  30.12
810.6  37824.15  11415.65  30.18
811.8  37796.29  11437.95  30.26
813.0  37827.58  11454.55  30.28
814.2  37840.50  11477.37  30.33
815.4  37955.24  11494.00  30.28
816.6  38027.91  11499.81  30.24
817.9  38102.35  11490.49  30.16
819.1  38072.96  11426.78  30.01
820.3  37949.69  11360.02  29.93
821.5  37894.61  11315.50  29.86
822.7  37866.54  11296.65  29.83
823.9  37906.28  11288.42  29.78
825.1  37943.15  11269.68  29.70
826.3  38020.73  11265.40  29.63
827.5  38108.05  11264.76  29.56
828.7  38176.32  11246.78  29.46
829.9  38262.68  11246.83  29.39
831.0  38386.63  11275.21  29.37
832.2  38533.16  11308.48  29.35
833.4  38634.36  11336.59  29.34
834.6  38746.88  11370.32  29.35
835.8  38872.58  11398.59  29.32
837.0  39026.76  11464.88  29.38
838.1  39200.00  11540.16  29.44
839.3  39334.99  11571.77  29.42
840.5  39499.16  11619.03  29.42
841.7  39675.29  11723.27  29.55
842.9  39834.34  11813.51  29.66
844.0  40002.80  11855.47  29.64
845.2  40188.33  11908.24  29.63
846.4  40315.24  11938.41  29.61
847.5  40575.08  12010.97  29.60
848.7  40794.29  12071.63  29.59
849.9  41043.27  12098.39  29.48
851.0  41176.72  12073.15  29.32
852.2  41283.01  12076.07  29.25
853.3  41336.03  12050.20  29.15
854.5  41385.60  12039.27  29.09
855.6  41408.01  12053.57  29.11
856.8  41491.09  12093.82  29.15
857.9  41535.42  12101.88  29.14
859.1  41657.80  12154.89  29.18
860.2  41711.76  12166.04  29.17
861.4  41789.90  12184.42  29.16
862.5  41857.52  12208.12  29.17
863.7  41978.22  12238.19  29.15
864.8  42001.40  12254.18  29.18
865.9  42003.19  12231.42  29.12
867.1  42077.89  12235.57  29.08
868.2  42118.25  12239.64  29.06
869.3  42153.63  12239.96  29.04
870.5  42092.46  12212.66  29.01
871.6  42122.53  12239.05  29.06
872.7  42223.14  12281.62  29.09
873.9  42262.83  12281.55  29.06
875.0  42247.20  12258.37  29.02
876.1  42225.11  12244.92  29.00
877.2  42279.84  12241.15  28.95
878.3  42302.12  12202.38  28.85
879.4  42284.06  12194.11  28.84
880.5  42343.92  12183.19  28.77
881.7  42326.05  12135.33  28.67
882.8  42351.34  12128.20  28.64
883.9  42430.09  12089.44  28.49
885.0  42357.32  12031.70  28.41
886.1  42357.47  11987.26  28.30
887.2  42241.92  11907.48  28.19
888.3  42147.85  11838.32  28.09
889.4  42045.32  11766.33  27.98
890.5  41945.29  11723.91  27.95
891.6  41864.40  11696.77  27.94
892.7  41844.69  11664.64  27.88
893.8  41881.85  11691.79  27.92
894.9  41879.31  11695.53  27.93
896.0  41812.69  11638.91  27.84
897.0  41850.92  11623.72  27.77
898.1  41821.61  11614.33  27.77
899.2  41852.54  11604.02  27.73
900.3  41747.94  11541.56  27.65
901.4  41622.41  11480.18  27.58
902.4  41658.53  11495.32  27.59
903.5  41604.82  11457.81  27.54
904.6  41550.72  11453.18  27.56
905.7  41565.54  11418.69  27.47
906.7  41536.49  11401.42  27.45
907.8  41558.34  11395.37  27.42
908.9  41493.73  11349.39  27.35
909.9  41451.58  11319.94  27.31
911.0  41358.23  11270.78  27.25
912.1  41297.17  11207.31  27.14
913.1  41189.72  11158.47  27.09
914.2  41099.85  11099.61  27.01
915.2  41068.89  11070.25  26.96
916.3  41034.15  11046.29  26.92
917.3  40975.74  10996.91  26.84
918.4  40862.80  10915.74  26.71
919.4  40836.29  10848.00  26.56
920.5  40782.84  10820.33  26.53
921.5  40833.45  10780.45  26.40
922.6  40729.18  10698.91  26.27
923.6  40739.49  10670.88  26.19
924.7  40774.75  10634.62  26.08
925.7  40746.72  10584.16  25.98
926.7  40808.40  10503.41  25.74
927.8  40839.01  10437.50  25.56
928.8  40966.59  10429.08  25.46
929.9  41048.46  10391.56  25.32
930.9  41217.18  10370.13  25.16
931.9  41378.61  10399.24  25.13
932.9  41679.25  10421.17  25.00
934.0  41702.58  10359.83  24.84
935.0  41757.18  10313.61  24.70
936.0  41670.71  10252.24  24.60
937.0  41632.50  10189.26  24.47
938.1  41580.55  10130.16  24.36
939.1  41508.45  10092.30  24.31
940.1  41591.64  10020.36  24.09
941.1  41779.29  10013.41  23.97
942.1  41991.60  9987.17  23.78
943.1  42156.63  9963.37  23.63
944.1  42391.18  9971.42  23.52
945.2  42445.20  9890.86  23.30
946.2  42493.04  9824.02  23.12
947.2  42572.63  9772.67  22.96
948.2  42750.54  9743.06  22.79
949.2  42846.38  9660.46  22.55
950.2  42880.60  9578.35  22.34
951.2  42968.52  9510.48  22.13
952.2  43001.40  9440.94  21.95
953.2  43164.71  9409.78  21.80
954.2  43310.48  9373.64  21.64
955.2  43368.34  9286.12  21.41
956.2  43301.73  9214.53  21.28
957.2  43392.87  9179.88  21.16
958.2  43492.10  9149.59  21.04
959.2  43506.45  9120.87  20.96
960.1  43588.22  9081.87  20.84
961.1  43692.83  9092.52  20.81
962.1  43658.44  9044.00  20.72
963.1  43782.00  9039.77  20.65
964.1  43817.42  9037.42  20.63
965.1  43908.74  9040.07  20.59
966.1  44007.38  9038.86  20.54
967.0  44141.86  9040.11  20.48
968.0  44131.86  9012.08  20.42
969.0  44255.20  8988.00  20.31
970.0  44255.36  9002.63  20.34
971.0  44316.83  9016.79  20.35
971.9  44400.90  8955.76  20.17
972.9  44577.14  8900.68  19.97
973.9  44494.78  8820.22  19.82
974.9  44573.29  8760.24  19.65
975.8  44702.44  8668.02  19.39
976.8  44666.28  8613.28  19.28
977.8  44950.93  8531.44  18.98
978.8  44877.90  8473.91  18.88
979.7  45104.10  8441.44  18.72
980.7  45212.81  8390.42  18.56
981.7  45433.99  8365.07  18.41
982.6  45657.51  8363.34  18.32
983.6  46147.45  8393.37  18.19
984.6  46551.05  8464.93  18.18
985.5  47031.84  8439.15  17.94
986.5  47664.14  8552.67  17.94
987.5  48852.12  8646.12  17.70
988.4  49722.20  8685.38  17.47
989.4  51183.38  8838.50  17.27
990.4  52549.20  9001.48  17.13
991.3  54023.93  9021.03  16.70
992.3  54777.10  9025.18  16.48
993.2  55874.36  9245.07  16.55
994.2  57686.85  9513.27  16.49
995.2  57633.14  9213.84  15.99
996.1  59292.71  9433.86  15.91
997.1  59931.56  9163.45  15.29
998.0  60640.20  8953.28  14.76
999.0  59258.53  8816.51  14.88
1000.0  60377.42  8900.36  14.74
1000.9  59810.48  8551.85  14.30
1001.9  59598.95  8514.14  14.29
1002.8  60212.52  8557.98  14.21
1003.8  59788.51  8320.93  13.92
1004.8  59326.80  8001.51  13.49
961.5  55398.21  10957.18  19.78
965.5  54418.85  11259.07  20.69
969.5  52458.23  11148.99  21.25
973.4  50487.36  10698.51  21.19
977.4  48611.32  10208.57  21.00
981.4  47578.80  9763.19  20.52
985.3  47203.20  9497.46  20.12
989.3  47137.31  9405.79  19.95
993.3  47133.16  9411.94  19.97
997.2  47029.21  9435.62  20.06
1001.2  46955.35  9510.50  20.25
1005.2  46914.32  9611.77  20.49
1009.1  47038.13  9738.69  20.70
1013.1  47236.75  9906.84  20.97
1017.1  47375.30  10047.38  21.21
1021.0  47429.61  10144.93  21.39
1025.0  47461.87  10251.97  21.60
1029.0  47354.18  10320.99  21.80
1032.9  47271.77  10398.83  22.00
1036.9  47308.70  10522.35  22.24
1040.9  47476.08  10692.21  22.52
1044.8  47747.63  10873.60  22.77
1048.8  47970.59  11029.08  22.99
1052.7  48104.60  11174.89  23.23
1056.7  48183.46  11274.90  23.40
1060.7  48250.82  11345.51  23.51
1064.6  48272.17  11416.34  23.65
1068.6  48190.54  11421.49  23.70
1072.5  48116.11  11408.45  23.71
1076.5  48076.67  11403.68  23.72
1080.4  48048.88  11370.17  23.66
1084.4  48150.59  11332.47  23.54
1088.3  48279.53  11294.39  23.39
1092.3  48252.92  11214.84  23.24
1096.2  48221.83  11127.90  23.08
1100.2  48245.69  11059.58  22.92
1104.1  48124.97  10950.09  22.75
1108.1  48059.38  10850.07  22.58
1112.0  47955.87  10713.38  22.34
1116.0  47754.46  10520.47  22.03
1119.9  47569.76  10305.22  21.66
1123.9  47623.80  10109.51  21.23
1127.8  47592.96  9827.84  20.65
1131.8  47556.42  9464.04  19.90
1135.7  47568.82  9041.92  19.01
1139.6  47554.30  8567.66  18.02
1143.6  47510.71  8130.09  17.11
1147.5  47481.98  7783.77  16.39
1151.4  47337.52  7491.27  15.83
1155.4  47322.86  7311.41  15.45
1159.3  47329.81  7207.76  15.23
1163.2  47159.49  7107.45  15.07
1167.2  47113.86  7052.86  14.97
1171.1  47117.13  7009.66  14.88
1175.0  47022.16  6966.12  14.81
1179.0  46962.63  6929.27  14.75
1182.9  47045.30  6899.00  14.66
1186.8  47019.62  6858.48  14.59
1190.7  46784.64  6800.71  14.54
1194.7  46508.35  6746.54  14.51
1198.6  46264.68  6716.33  14.52
1202.5  46100.54  6698.46  14.53
1206.4  45962.62  6690.35  14.56
1210.3  45829.98  6714.82  14.65
1214.2  45707.13  6731.51  14.73
1218.2  45554.16  6734.99  14.78
1222.1  45384.95  6762.88  14.90
1226.0  45257.55  6803.64  15.03
1229.9  45156.00  6838.06  15.14
1233.8  45033.17  6862.11  15.24
1237.7  44950.68  6885.89  15.32
1241.6  44841.64  6914.12  15.42
1245.5  44683.61  6915.07  15.48
1249.4  44538.65  6902.48  15.50
1253.3  44401.40  6906.88  15.56
1257.2  44324.52  6933.71  15.64
1261.1  44209.48  6938.14  15.69
1265.0  44086.55  6924.80  15.71
1268.9  43910.05  6889.43  15.69
1272.8  43969.80  6878.00  15.64
1276.7  44155.69  6885.42  15.59
1280.6  44249.88  6867.47  15.52
1284.5  44188.89  6801.75  15.39
1288.4  44167.03  6738.93  15.26
1292.3  44060.50  6660.50  15.12
1296.2  43934.23  6558.83  14.93
1300.1  43787.98  6437.02  14.70
1303.9  43564.57  6292.10  14.44
1307.8  43339.22  6133.58  14.15
1311.7  43109.06  5967.07  13.84
1315.6  42877.90  5795.97  13.52
1319.5  42633.84  5604.09  13.14
1323.3  42417.44  5409.13  12.75
1327.2  42218.70  5210.83  12.34
1331.1  42002.86  5002.34  11.91
1335.0  41739.72  4797.39  11.49
1338.8  41543.11  4619.16  11.12
1342.7  41389.31  4454.40  10.76
1346.5  41042.00  4281.08  10.43
1350.4  40741.74  4131.43  10.14
1354.3  40332.24  3964.84  9.83
1358.1  39895.31  3802.58  9.53
1362.0  39644.33  3661.47  9.24
1365.8  39567.12  3526.53  8.91
1369.7  39683.68  3400.98  8.57
1373.5  39615.26  3226.55  8.14
1377.4  39354.79  2987.43  7.59
1381.2  39167.92  2718.56  6.94
1385.1  39160.09  2446.43  6.25
1389.0  39060.88  2170.90  5.56
1392.8  38834.72  1911.34  4.92
1396.6  38680.88  1689.56  4.37
1400.5  38476.57  1502.22  3.90
1404.3  38299.58  1355.43  3.54
1408.2  38263.03  1246.33  3.26
1412.0  38218.70  1169.34  3.06
1415.8  38249.29  1105.18  2.89
1419.6  38208.11  1056.47  2.77
1423.5  38172.20  1022.07  2.68
1427.3  38125.77  995.21  2.61
1431.1  38099.78  979.60  2.57
1434.9  38010.73  959.29  2.52
1438.8  37949.80  947.61  2.50
1442.6  37913.52  943.20  2.49
1446.4  37795.09  936.60  2.48
1450.2  37700.99  935.29  2.48
1454.0  37583.52  933.28  2.48
1457.8  37547.69  934.20  2.49
1461.6  37527.24  938.88  2.50
1465.4  37404.28  945.72  2.53
1469.2  37216.73  957.02  2.57
1473.0  37080.95  971.52  2.62
1476.8  37019.78  998.52  2.70
1480.7  36949.43  1028.59  2.78
1484.4  36826.56  1051.08  2.85
1488.2  36723.96  1089.84  2.97
1492.0  36584.11  1129.42  3.09
1495.8  36452.33  1163.28  3.19
1499.6  36350.05  1192.68  3.28
1503.4  36216.75  1205.77  3.33
1507.2  36087.28  1212.56  3.36
1510.9  35929.91  1232.42  3.43
1514.7  35749.31  1256.22  3.51
1518.5  35615.65  1283.24  3.60
1522.3  35466.30  1314.00  3.70
1526.0  35355.47  1342.09  3.80
1529.8  35294.61  1375.79  3.90
1533.6  35159.29  1410.10  4.01
1537.3  35020.99  1439.80  4.11
1541.1  34889.16  1468.23  4.21
1544.8  34754.40  1495.20  4.30
1548.6  34607.98  1522.54  4.40
1552.4  34514.76  1551.72  4.50
1556.1  34455.77  1579.35  4.58
1559.9  34373.05  1603.18  4.66
1563.6  34243.93  1630.10  4.76
1567.3  34122.03  1661.05  4.87
1571.1  33904.82  1686.73  4.97
1574.8  33749.79  1712.28  5.07
1578.6  33637.37  1747.22  5.19
1582.3  33496.17  1764.68  5.27
1586.0  33359.51  1774.64  5.32
1589.8  33217.24  1794.88  5.40
1593.5  33051.52  1810.31  5.48
1597.2  32917.71  1825.56  5.55
1600.9  32767.31  1835.89  5.60
1604.7  32613.52  1857.52  5.70
1608.4  32493.03  1872.67  5.76
1612.1  32320.35  1883.95  5.83
1615.8  32161.00  1899.94  5.91
1619.5  32072.28  1915.95  5.97
1623.2  31915.49  1931.20  6.05
1626.9  31725.78  1939.21  6.11
1630.6  31537.44  1946.49  6.17
1634.3  31397.73  1958.58  6.24
1638.0  31241.74  1954.52  6.26
1641.7  31050.65  1948.82  6.28
1645.4  30870.63  1939.94  6.28
1649.1  30683.95  1927.82  6.28
1652.8  30504.58  1918.08  6.29
1656.4  30322.32  1897.46  6.26
1660.1  30158.02  1889.60  6.27
1663.8  29966.42  1883.20  6.28
1667.5  29809.99  1871.28  6.28
1671.1  29676.54  1859.46  6.27
1674.8  29472.79  1843.07  6.25
1678.5  29413.48  1835.32  6.24
1682.1  29419.35  1828.32  6.21
1685.8  29417.21  1818.87  6.18
1689.5  29310.65  1802.97  6.15
1693.1  29167.59  1783.82  6.12
1696.8  29020.13  1763.04  6.08
1700.4  28874.60  1738.86  6.02
1704.0  28754.23  1715.86  5.97
1707.7  28493.62  1681.95  5.90
1711.3  28200.13  1643.16  5.83
1715.0  27991.44  1611.54  5.76
1718.6  27822.35  1582.16  5.69
1722.2  27677.55  1554.77  5.62
1725.9  27527.50  1525.82  5.54
1729.5  27386.37  1497.69  5.47
1733.1  27262.24  1484.98  5.45
1736.7  27144.69  1475.38  5.44
1740.3  26982.07  1450.57  5.38
1744.0  26899.89  1432.01  5.32
1747.5  26760.07  1407.50  5.26
1751.2  26551.35  1378.45  5.19
1754.8  26397.18  1347.53  5.10
1758.4  26262.14  1319.15  5.02
1762.0  26085.49  1297.23  4.97
1765.5  25956.49  1283.69  4.95
1769.1  25915.20  1276.80  4.93
1772.7  25841.75  1258.92  4.87
1776.3  25724.16  1239.92  4.82
1779.9  25608.69  1226.82  4.79
1783.5  25553.92  1223.47  4.79
1787.0  25434.82  1214.51  4.78
1790.6  25293.30  1200.26  4.75
1794.2  25193.03  1197.74  4.75
1797.8  25095.48  1196.61  4.77
1801.3  25012.46  1193.30  4.77
1804.9  24871.88  1184.75  4.76
1808.4  24792.34  1181.48  4.77
1812.0  24660.35  1177.41  4.77
1815.5  24519.60  1167.60  4.76
1819.1  24324.68  1159.54  4.77
1822.6  24164.48  1156.32  4.79
1826.2  24042.90  1147.98  4.77
1829.7  23859.90  1139.76  4.78
1833.2  23612.46  1132.93  4.80
1836.8  23400.20  1114.75  4.76
1840.3  23257.80  1100.48  4.73
1843.8  23131.92  1099.89  4.75
1847.3  23013.03  1091.84  4.74
1850.8  22865.47  1083.26  4.74
1854.3  22692.74  1082.99  4.77
1857.8  22594.00  1048.67  4.64
1861.3  22615.25  982.41  4.34
1864.8  22605.64  921.54  4.08
1868.3  22468.36  856.92  3.81
1871.8  22341.12  760.32  3.40
1875.3  22323.21  685.84  3.07
1878.8  22320.32  629.03  2.82
1882.3  22237.89  577.03  2.59
1885.8  22045.10  524.69  2.38
1889.3  21861.76  481.00  2.20
1892.7  21710.01  454.50  2.09
1896.2  21503.16  427.68  1.99
1899.7  21232.37  422.32  1.99
1903.1  21059.81  448.45  2.13
1906.6  21101.81  470.71  2.23
1910.0  21348.35  500.35  2.34
1913.5  21771.66  584.66  2.69
1917.0  22339.63  750.81  3.36
1920.4  22881.38  970.73  4.24
1923.8  23136.14  1011.42  4.37
1871.2  20260.60  454.05  2.24
1873.9  20445.79  458.17  2.24
1876.7  20658.97  406.06  1.97
1879.5  20770.50  334.19  1.61
1882.3  20488.21  309.75  1.51
1885.1  20498.36  275.84  1.35
1887.8  20542.45  247.40  1.20
1890.6  20318.11  283.28  1.39
1893.4  20320.67  232.22  1.14
1896.2  20203.65  231.51  1.15
1898.9  20201.38  233.38  1.16
1901.7  20074.51  207.70  1.03
1904.5  20223.67  225.71  1.12
1907.2  20168.50  205.83  1.02
1910.0  20030.00  208.96  1.04
1912.7  20048.69  209.51  1.04
1915.5  19979.54  206.98  1.04
1918.2  19877.64  223.05  1.12
1921.0  19705.09  216.61  1.10
1923.7  19733.20  213.44  1.08
1926.5  19715.86  211.68  1.07
1929.2  19701.76  214.85  1.09
1932.0  19674.16  219.09  1.11
1934.7  19635.47  224.08  1.14
1937.4  19518.79  219.18  1.12
1940.2  19475.71  217.18  1.12
1942.9  19573.26  230.41  1.18
1945.6  19572.62  225.49  1.15
1948.3  19494.00  237.66  1.22
1951.1  19465.67  229.76  1.18
1953.8  19476.00  215.00  1.10
1956.5  19368.67  237.60  1.23
1959.2  19423.04  230.23  1.19
1961.9  19438.54  236.41  1.22
1964.6  19331.55  242.96  1.26
1967.3  19375.30  244.26  1.26
1970.0  19228.16  240.75  1.25
1972.8  19159.08  236.31  1.23
1975.5  19219.42  241.94  1.26
1978.2  19120.16  242.36  1.27
1980.9  19002.89  247.78  1.30
1983.5  18950.70  242.36  1.28
1986.2  18944.10  254.14  1.34
1988.9  18909.18  256.08  1.35
1991.6  18787.78  243.32  1.30
1994.3  18678.85  248.40  1.33
1997.0  18669.58  258.54  1.38
1999.7  18631.37  268.02  1.44
2002.3  18617.79  277.12  1.49
2005.0  18540.12  269.45  1.45
2007.7  18469.93  270.42  1.46
2010.4  18400.48  287.41  1.56
2013.0  18316.11  276.92  1.51
2015.7  18226.45  273.75  1.50
2018.4  18129.14  275.16  1.52
2021.0  18062.50  280.50  1.55
2023.7  17946.51  286.44  1.60
2026.4  17902.73  290.11  1.62
2029.0  17806.29  291.48  1.64
2031.7  17677.40  289.18  1.64
2034.3  17722.47  298.57  1.68
2037.0  17610.64  289.95  1.65
2039.6  17527.07  290.71  1.66
2042.3  17481.88  303.30  1.73
2044.9  17393.81  301.07  1.73
2047.5  17348.93  305.75  1.76
2050.2  17253.60  302.40  1.75
2052.8  17214.40  298.67  1.73
2055.4  17090.17  310.05  1.81
2058.1  16973.60  310.80  1.83
2060.7  16918.14  309.31  1.83
2063.3  16842.61  299.10  1.78
2065.9  16794.67  305.22  1.82
2068.6  16710.92  296.85  1.78
2071.2  16664.67  293.88  1.76
2073.8  16591.32  293.83  1.77
2076.4  16536.88  302.18  1.83
2079.0  16525.61  320.34  1.94
2081.6  16519.89  309.47  1.87
2084.2  16487.00  305.68  1.85
2086.8  16353.42  309.23  1.89
2089.4  16268.28  323.38  1.99
2092.1  16209.50  319.22  1.97
2094.7  16113.80  301.34  1.87
2097.2  16087.67  313.56  1.95
2099.8  16089.36  325.47  2.02
2102.4  15953.94  331.72  2.08
2105.0  15826.05  337.25  2.13
2107.6  15774.07  325.66  2.06
2110.2  15742.83  323.01  2.05
2112.8  15734.02  316.88  2.01
2115.3  15735.22  320.42  2.04
2117.9  15738.64  311.45  1.98
2120.5  15682.70  319.68  2.04
2123.1  15604.88  333.45  2.14
2125.6  15567.02  323.10  2.08
2128.2  15487.92  330.71  2.14
2130.8  15394.28  337.35  2.19
2133.3  15347.20  330.49  2.15
2135.9  15264.31  333.39  2.18
2138.4  15119.35  325.11  2.15
2141.0  15032.51  314.40  2.09
2143.6  14998.41  327.37  2.18
2146.1  14847.40  333.01  2.24
2148.7  14686.27  324.01  2.21
2151.2  14704.80  332.44  2.26
2153.8  14713.72  342.41  2.33
2156.3  14589.47  336.68  2.31
2158.8  14533.35  334.71  2.30
2161.4  14517.59  331.20  2.28
2163.9  14426.20  333.16  2.31
2166.4  14354.62  344.94  2.40
2169.0  14310.27  332.13  2.32
2171.5  14227.48  329.17  2.31
2174.0  14143.15  338.16  2.39
2176.5  14124.76  338.87  2.40
2179.1  14082.55  330.28  2.35
2181.6  13967.33  353.85  2.53
2184.1  13937.00  362.41  2.60
2186.6  13993.83  336.85  2.41
2189.1  13896.09  332.77  2.39
2191.6  13840.87  333.20  2.41
2194.1  13877.92  349.88  2.52
2196.6  13844.81  346.46  2.50
2199.2  13897.52  315.12  2.27
2201.7  13871.80  328.32  2.37
2204.1  13802.39  354.29  2.57
2206.6  13786.08  353.11  2.56
2209.1  13743.34  345.70  2.52
2211.6  13738.26  324.84  2.36
2214.1  13693.60  333.28  2.43
2216.6  13643.61  346.91  2.54
2219.1  13655.01  357.04  2.61
2221.6  13597.41  338.79  2.49
2224.0  13563.60  325.12  2.40
2226.5  13534.39  325.96  2.41
2229.0  13551.73  322.30  2.38
2231.5  13416.49  326.83  2.44
2233.9  13376.81  311.71  2.33
2236.4  13409.64  320.38  2.39
2238.9  13341.63  317.75  2.38
2241.3  13300.17  307.05  2.31
2243.8  13261.31  300.57  2.27
2246.2  13153.53  286.87  2.18
2248.7  13089.53  281.54  2.15
2251.2  13067.33  284.41  2.18
2253.6  13017.60  279.04  2.14
2256.1  12979.20  280.32  2.16
2258.5  12980.99  271.48  2.09
2260.9  12912.45  254.39  1.97
2263.4  12850.74  262.29  2.04
2265.8  12840.17  259.01  2.02
2268.3  12768.77  261.69  2.05
2270.7  12812.36  255.89  2.00
2273.1  12778.22  251.83  1.97
2275.6  12710.40  253.44  1.99
2278.0  12729.12  226.76  1.78
2280.4  12680.26  237.32  1.87
2282.8  12544.20  236.17  1.88
2285.3  12570.98  232.01  1.85
2287.7  12679.54  234.30  1.85
2290.1  12579.51  206.89  1.64
2292.5  12520.09  215.62  1.72
2294.9  12538.64  229.20  1.83
2297.3  12458.25  222.80  1.79
2299.7  12334.59  200.05  1.62
2302.1  12311.40  204.27  1.66
2304.5  12214.72  211.68  1.73
2306.9  12089.28  189.47  1.57
2309.3  11994.02  181.55  1.51
2311.7  11939.85  181.86  1.52
2314.1  11791.37  181.17  1.54
2316.5  11721.50  185.18  1.58
2318.9  11765.88  194.46  1.65
2321.3  11730.50  182.24  1.55
2323.7  11744.39  191.68  1.63
2326.1  11719.24  174.63  1.49
2328.4  11761.55  168.16  1.43
2330.8  11807.83  181.32  1.54
2333.2  11712.54  163.36  1.39
2335.6  11662.03  175.76  1.51
2337.9  11681.16  185.02  1.58
2340.3  11629.38  195.92  1.68
2342.7  11548.22  190.43  1.65
2345.0  11508.47  151.47  1.32
2347.4  11492.00  144.50  1.26
2349.7  11315.65  155.21  1.37
2352.1  11286.89  138.66  1.23
2354.4  11296.02  151.88  1.34
2356.8  11214.70  171.23  1.53
2359.2  11154.00  173.33  1.55
2361.5  11109.05  175.99  1.58
2363.8  11141.66  149.32  1.34
2366.2  11165.73  160.35  1.44
2368.5  11089.40  157.23  1.42
2370.9  11067.03  147.62  1.33
2373.2  11030.32  173.87  1.58
2375.5  10914.30  164.41  1.51
2377.9  10876.18  144.35  1.33
2380.2  10876.88  155.78  1.43
2382.5  10821.23  153.17  1.42
2384.8  10769.44  148.48  1.38
2387.2  10736.28  160.97  1.50
2389.5  10704.02  133.78  1.25
2391.8  10661.73  134.68  1.26
2394.1  10613.91  150.35  1.42
2396.4  10610.47  133.86  1.26
2398.7  10654.34  139.65  1.31
2401.0  10513.07  151.65  1.44
2403.3  10428.12  127.82  1.23
2405.6  10456.51  113.29  1.08
2407.9  10375.71  121.91  1.17
2410.2  10317.44  128.68  1.25
2412.5  10224.31  121.96  1.19
2414.8  10187.84  111.26  1.09
2417.1  10204.62  104.95  1.03
2419.4  10195.97  137.20  1.35
2421.7  10103.31  143.68  1.42
2424.0  10048.90  116.23  1.16
2426.2  10074.05  92.73  0.92
2428.5  10032.46  90.14  0.90
2430.8  10006.20  92.65  0.93
2433.1  9945.94  103.26  1.04
2435.4  9886.37  123.09  1.25
2437.6  9830.42  108.17  1.10
2439.9  9708.34  99.20  1.02
2442.2  9709.99  109.97  1.13
2444.4  9752.18  107.21  1.10
2446.7  9688.56  93.44  0.96
2448.9  9658.24  118.44  1.23
2451.2  9631.36  111.25  1.16
2453.4  9564.32  82.36  0.86
2455.7  9566.46  99.33  1.04
2457.9  9468.86  93.61  0.99
2460.2  9395.46  88.37  0.94
2462.4  9422.40  118.56  1.26
2464.7  9348.95  103.04  1.10
2466.9  9251.22  87.74  0.95
2469.2  9249.34  86.42  0.93
2471.4  9151.61  100.67  1.10
2473.6  9078.42  104.89  1.16
2475.9  9042.40  67.74  0.75
2478.1  8956.32  70.60  0.79
2480.3  8952.70  74.26  0.83
2482.5  8971.16  54.80  0.61
2484.8  8832.66  67.96  0.77
2487.0  8762.09  81.47  0.93
2489.2  8850.00  57.80  0.65
2491.4  8753.22  79.41  0.91
2493.6  8669.20  91.45  1.05
2495.8  8662.66  55.43  0.64
2498.0  8674.13  81.07  0.93
2500.2  8694.60  61.79  0.71
2502.4  8942.16  50.32  0.56
2504.6  9089.52  100.16  1.10
2506.8  9176.65  87.68  0.96
