/*** Spectra Vista SIG Data ***/
name= RS.sig
comm= Resampled spectral data SIG file reprocesed for matching/overlap;Averaged Ref/Tar of files: RS1,RS2,RS3
data=
346.0  468.20  42.89  9.16
356.0  683.10  47.29  6.92
366.0  906.09  49.71  5.49
376.0  1249.89  49.52  3.96
386.0  1571.27  51.14  3.25
396.0  2026.07  64.40  3.18
406.0  2502.77  55.93  2.23
416.0  3165.14  67.97  2.15
426.0  3668.56  67.71  1.85
436.0  4548.65  72.94  1.60
446.0  5417.72  85.12  1.57
456.0  6302.44  87.88  1.39
466.0  7615.04  102.00  1.34
476.0  8743.20  111.67  1.28
486.0  9533.40  113.93  1.20
496.0  11257.81  131.20  1.17
506.0  12699.26  147.11  1.16
516.0  13281.41  150.92  1.14
526.0  14721.08  162.32  1.10
536.0  16749.01  186.20  1.11
546.0  18621.46  209.22  1.12
556.0  19066.94  213.57  1.12
566.0  20585.57  237.04  1.15
576.0  22670.38  291.03  1.28
586.0  24106.47  388.99  1.61
596.0  25247.53  540.67  2.14
606.0  25711.34  761.26  2.96
616.0  27649.38  1110.06  4.01
626.0  31025.14  1387.64  4.47
636.0  30881.13  1867.44  6.05
646.0  31238.37  2351.66  7.53
656.0  30360.38  2304.42  7.59
666.0  31764.82  1975.93  6.22
676.0  33416.99  1889.56  5.65
686.0  36086.51  2959.66  8.20
696.0  37161.40  5926.41  15.95
706.0  37800.45  8357.73  22.11
716.0  37597.62  9495.16  25.25
726.0  36909.99  9915.02  26.86
736.0  36510.50  10030.53  27.47
746.0  38642.98  10929.37  28.28
756.0  39260.04  11120.31  28.32
766.0  40452.13  11879.89  29.37
776.0  40956.88  12218.52  29.83
786.0  40712.49  12390.45  30.43
796.0  39541.78  11817.55  29.89
806.0  38183.08  11448.48  29.98
816.0  37991.58  11496.91  30.26
826.0  38001.34  11266.47  29.65
836.0  38898.28  11409.64  29.33
846.0  40272.93  11928.35  29.62
856.0  41435.70  12066.99  29.12
866.0  42009.41  12231.77  29.12
876.0  42227.12  12246.14  29.00
886.0  42357.46  11991.30  28.31
896.0  41812.69  11638.91  27.84
906.0  41556.83  11413.51  27.46
916.0  41043.62  11052.82  26.93
926.0  40765.22  10559.94  25.90
936.0  41670.71  10252.24  24.60
946.0  42483.47  9837.39  23.16
956.0  43315.05  9228.85  21.31
966.0  43997.52  9038.98  20.54
976.0  44695.21  8657.07  19.37
986.0  47191.67  9481.42  20.09
996.0  47061.19  9428.33  20.03
1006.0  46939.72  9637.80  20.53
1016.0  47337.20  10008.73  21.14
1026.0  47434.95  10269.23  21.65
1036.0  47300.39  10494.56  22.19
1046.0  47814.52  10920.24  22.84
1056.0  48169.66  11257.40  23.37
1066.0  48243.60  11418.14  23.67
1076.0  48081.60  11404.28  23.72
1086.0  48203.49  11316.85  23.48
1096.0  48223.42  11132.36  23.08
1106.0  48093.81  10902.58  22.67
1116.0  47754.46  10520.47  22.03
1126.0  47607.19  9957.84  20.92
1136.0  47567.70  9005.43  18.93
1146.0  47493.03  7916.97  16.67
1156.0  47323.93  7295.46  15.42
1166.0  47127.55  7069.24  15.00
1176.0  47007.28  6956.91  14.80
1186.0  47024.89  6866.79  14.60
1196.0  46427.12  6736.47  14.51
1206.0  45976.77  6691.18  14.55
1216.0  45638.29  6733.08  14.75
1226.0  45257.55  6803.64  15.03
1236.0  44986.64  6875.52  15.28
1246.0  44665.03  6913.46  15.48
1256.0  44348.18  6925.45  15.62
1266.0  44041.29  6915.73  15.70
1276.0  44122.33  6884.09  15.60
1286.0  44180.48  6777.59  15.34
1296.0  43940.70  6564.04  14.94
1306.0  43443.23  6206.74  14.29
1316.0  42852.87  5776.29  13.48
1326.0  42279.85  5271.84  12.47
1336.0  41687.98  4750.49  11.40
1346.0  41087.70  4303.88  10.47
1356.0  40136.77  3892.25  9.70
1366.0  39573.10  3520.09  8.90
1376.0  39448.29  3073.27  7.79
1386.0  39137.19  2382.84  6.09
1396.0  38705.17  1724.58  4.46
1406.0  38283.65  1307.87  3.42
1416.0  38247.12  1102.62  2.88
1426.0  38141.65  1004.40  2.63
1436.0  37993.55  956.00  2.52
1446.0  37807.56  937.29  2.48
1456.0  37564.66  933.76  2.49
1466.0  37374.67  947.50  2.54
1476.0  37032.66  992.84  2.68
1486.0  36783.36  1067.40  2.90
1496.0  36446.95  1164.83  3.20
1506.0  36128.16  1210.42  3.35
1516.0  35703.58  1265.46  3.54
1526.0  35355.47  1342.09  3.80
1536.0  35069.58  1429.36  4.08
1546.0  34708.16  1503.83  4.33
1556.0  34457.36  1578.60  4.58
1566.0  34164.86  1650.18  4.83
1576.0  33714.29  1723.31  5.11
1586.0  33359.51  1774.64  5.32
1596.0  32961.11  1820.61  5.52
1606.0  32571.18  1862.84  5.72
1616.0  32156.21  1900.81  5.91
1626.0  31771.93  1937.26  6.10
1636.0  31326.06  1956.71  6.25
1646.0  30840.36  1937.97  6.28
1656.0  30342.57  1899.75  6.26
1666.0  29873.41  1876.11  6.28
1676.0  29453.55  1840.56  6.25
1686.0  29411.45  1818.01  6.18
1696.0  29052.01  1767.53  6.08
1706.0  28613.36  1697.53  5.93
1716.0  27944.47  1603.38  5.74
1726.0  27523.58  1525.04  5.54
1736.0  27167.55  1477.25  5.44
1746.0  26819.99  1418.00  5.29
1756.0  26352.17  1338.07  5.08
1766.0  25950.76  1282.73  4.94
1776.0  25733.96  1241.50  4.82
1786.0  25468.85  1217.07  4.78
1796.0  25144.26  1197.18  4.76
1806.0  24846.88  1183.72  4.76
1816.0  24492.53  1166.48  4.76
1826.0  24049.65  1148.44  4.78
1836.0  23447.37  1118.79  4.77
1846.0  23057.19  1094.83  4.75
1856.0  22644.78  1066.32  4.71
1866.0  22558.57  899.39  3.99
1876.0  22322.63  674.48  3.02
1886.0  22034.63  522.19  2.37
1896.0  21514.98  429.21  1.99
1906.0  20193.02  214.67  1.06
1916.0  19960.67  209.96  1.05
1926.0  19718.96  211.99  1.08
1936.0  19579.29  221.72  1.13
1946.0  19560.97  227.29  1.16
1956.0  19388.55  233.41  1.20
1966.0  19354.23  243.63  1.26
1976.0  19201.04  242.02  1.26
1986.0  18944.59  253.27  1.34
1996.0  18673.01  254.78  1.36
2006.0  18514.12  269.81  1.46
2016.0  18215.64  273.91  1.50
2026.0  17909.22  289.57  1.62
2036.0  17652.06  293.14  1.66
2046.0  17374.82  303.05  1.74
2056.0  17064.26  310.22  1.82
2066.0  16791.57  304.91  1.82
2076.0  16545.25  300.90  1.82
2086.0  16394.52  308.14  1.88
2096.0  16100.21  307.69  1.91
2106.0  15806.06  332.79  2.11
2116.0  15736.14  318.01  2.02
2126.0  15554.85  324.27  2.08
2136.0  15258.51  333.06  2.18
2146.0  14853.45  332.78  2.24
2156.0  14604.38  337.37  2.31
2166.0  14366.07  343.06  2.39
2176.0  14128.44  338.73  2.40
2186.0  13980.19  342.99  2.45
2196.0  13852.76  347.28  2.51
2206.0  13790.00  353.39  2.56
2216.0  13655.61  343.64  2.52
2226.0  13540.23  325.79  2.41
2236.0  13404.39  318.99  2.38
2246.0  13162.51  288.01  2.19
2256.0  12980.74  280.27  2.16
2266.0  12834.46  259.22  2.02
2276.0  12713.52  248.99  1.96
2286.0  12602.64  232.68  1.85
2296.0  12501.79  226.27  1.81
2306.0  12136.32  197.80  1.63
2316.0  11736.06  184.34  1.57
2326.0  11720.29  175.34  1.50
2336.0  11665.36  177.37  1.52
2346.0  11501.61  148.57  1.29
2356.0  11241.81  164.78  1.47
2366.0  11163.72  159.43  1.43
2376.0  10906.36  160.23  1.47
2386.0  10752.86  154.73  1.44
2396.0  10611.07  136.73  1.29
2406.0  10442.46  114.79  1.10
2416.0  10196.59  107.97  1.06
2426.0  10071.76  94.87  0.94
2436.0  9871.11  119.02  1.21
2446.0  9707.92  97.63  1.01
2456.0  9553.15  98.55  1.03
2466.0  9291.20  94.00  1.01
2476.0  9038.48  67.87  0.75
2486.0  8794.17  75.33  0.86
2496.0  8663.70  57.76  0.67
2506.0  9144.96  92.22  1.01
