/*** Spectra Vista SIG Data ***/
name= AOB.sig
comm= Averaged Ref/Tar of files: AOB1,AOB2,AOB3
data=
346.4  509.60  114.66  22.50
347.9  536.51  113.79  21.21
349.5  577.20  117.31  20.32
351.1  620.88  116.48  18.76
352.6  679.94  120.18  17.68
354.2  723.22  121.74  16.83
355.7  777.89  124.82  16.05
357.3  842.60  141.48  16.79
358.8  838.80  137.47  16.39
360.4  904.00  138.82  15.36
361.9  943.76  146.26  15.50
363.5  997.20  144.51  14.49
365.1  1040.25  148.87  14.31
366.6  1087.54  141.78  13.04
368.2  1161.70  145.49  12.52
369.7  1204.79  144.53  12.00
371.3  1287.37  149.70  11.63
372.8  1354.56  153.61  11.34
374.4  1435.13  157.53  10.98
375.9  1463.02  155.35  10.62
377.4  1512.41  155.69  10.29
379.0  1578.52  158.70  10.05
380.5  1618.77  155.11  9.58
382.1  1669.58  156.02  9.35
383.6  1726.52  156.87  9.09
385.2  1809.50  153.63  8.49
386.7  1900.67  159.56  8.40
388.3  1991.93  160.51  8.06
389.8  2077.97  168.73  8.12
391.3  2163.95  174.15  8.05
392.9  2236.17  183.22  8.19
394.4  2293.88  193.88  8.45
395.9  2364.42  201.38  8.52
397.5  2493.56  213.18  8.55
399.0  2617.23  215.48  8.23
400.6  2691.33  213.57  7.94
402.1  2739.96  206.06  7.52
403.6  2797.88  205.23  7.34
405.1  2865.39  210.22  7.34
406.7  2979.20  217.43  7.30
408.2  3089.54  222.15  7.19
409.7  3183.04  234.15  7.36
411.3  3295.62  245.41  7.45
412.8  3391.47  257.54  7.59
414.3  3507.27  267.59  7.63
415.8  3622.50  280.33  7.74
417.4  3739.34  290.44  7.77
418.9  3830.42  298.88  7.80
420.4  3913.23  304.42  7.78
421.9  3978.48  307.50  7.73
423.5  4044.22  312.58  7.73
425.0  4110.68  319.15  7.76
426.5  4198.95  322.79  7.69
428.0  4314.36  327.85  7.60
429.5  4445.73  334.70  7.53
431.1  4599.50  344.43  7.49
432.6  4769.72  356.82  7.48
434.1  4937.63  367.03  7.43
435.6  5085.18  379.78  7.47
437.1  5233.80  390.26  7.46
438.6  5364.45  407.15  7.59
440.1  5501.44  420.56  7.64
441.6  5653.06  429.34  7.59
443.1  5799.60  449.28  7.75
444.7  5941.01  466.35  7.85
446.2  6051.88  486.68  8.04
447.7  6161.82  507.73  8.24
449.2  6292.08  524.16  8.33
450.7  6396.00  535.81  8.38
452.2  6529.70  553.87  8.48
453.7  6647.26  570.17  8.58
455.2  6815.62  589.48  8.65
456.7  7013.60  607.55  8.66
458.2  7232.90  630.03  8.71
459.7  7456.75  652.40  8.75
461.2  7667.16  675.17  8.81
462.7  7858.10  690.94  8.79
464.2  8041.02  708.58  8.81
465.7  8240.35  727.22  8.83
467.2  8402.63  745.87  8.88
468.7  8584.00  769.07  8.96
470.2  8698.25  792.69  9.11
471.7  8877.75  815.42  9.18
473.2  9159.71  836.62  9.13
474.6  9386.40  850.48  9.06
476.1  9450.96  858.46  9.08
477.6  9499.75  864.43  9.10
479.1  9557.87  875.24  9.16
480.6  9632.82  882.55  9.16
482.1  9760.73  899.82  9.22
483.6  9935.74  918.98  9.25
485.1  10133.78  940.52  9.28
486.6  10366.07  971.81  9.37
488.0  10621.00  1004.90  9.46
489.5  10873.80  1045.44  9.61
491.0  11134.31  1078.66  9.69
492.5  11404.80  1129.89  9.91
494.0  11683.71  1181.78  10.11
495.4  11917.95  1231.56  10.33
496.9  12154.26  1292.36  10.63
498.4  12387.41  1355.80  10.95
499.9  12623.63  1423.47  11.28
501.4  12839.71  1496.74  11.66
502.8  13042.06  1576.10  12.08
504.3  13226.40  1661.28  12.56
505.8  13406.54  1753.43  13.08
507.2  13518.16  1846.02  13.66
508.7  13603.31  1941.09  14.27
510.2  13672.60  2037.12  14.90
511.6  13715.26  2136.58  15.58
513.1  13806.21  2249.24  16.29
514.6  13898.29  2364.46  17.01
516.0  13992.63  2484.57  17.76
517.5  14151.40  2619.22  18.51
519.0  14339.95  2762.66  19.27
520.5  14520.56  2909.14  20.03
521.9  14760.83  3066.98  20.78
523.4  15031.28  3229.34  21.48
524.8  15295.25  3390.42  22.17
526.3  15594.01  3556.42  22.81
527.8  15909.50  3722.60  23.40
529.2  16189.50  3870.43  23.91
530.7  16509.28  4025.63  24.38
532.1  16791.25  4162.24  24.79
533.6  17121.20  4309.14  25.17
535.0  17454.94  4449.99  25.49
536.5  17789.22  4589.98  25.80
538.0  18136.88  4727.33  26.06
539.4  18461.69  4856.39  26.31
540.9  18864.39  4999.61  26.50
542.3  19206.33  5123.86  26.68
543.8  19460.81  5220.75  26.83
545.2  19544.37  5280.65  27.02
546.6  19566.05  5330.18  27.24
548.1  19604.97  5375.24  27.42
549.5  19640.65  5419.26  27.59
551.0  19664.79  5453.33  27.73
552.4  19724.92  5492.29  27.84
553.9  19761.60  5517.26  27.92
555.3  19812.20  5537.14  27.95
556.8  19934.49  5567.81  27.93
558.2  20047.50  5591.70  27.89
559.6  20200.16  5615.86  27.80
561.1  20397.00  5649.80  27.70
562.5  20617.77  5677.55  27.54
564.0  20901.40  5723.33  27.38
565.4  21161.13  5752.41  27.18
566.8  21482.31  5792.46  26.96
568.3  21793.28  5820.14  26.71
569.7  22118.60  5844.28  26.42
571.1  22425.71  5855.59  26.11
572.6  22741.56  5864.40  25.79
574.0  23030.70  5872.68  25.50
575.4  23309.44  5870.93  25.19
576.9  23581.06  5875.49  24.92
578.3  23822.01  5867.77  24.63
579.7  24048.22  5865.51  24.39
581.1  24227.75  5854.18  24.16
582.6  24429.78  5848.80  23.94
584.0  24600.48  5840.74  23.74
585.4  24853.74  5847.40  23.53
586.8  25196.68  5879.76  23.34
588.3  25573.86  5922.38  23.16
589.7  25896.78  5949.22  22.97
591.1  26104.75  5969.97  22.87
592.5  26211.06  5969.38  22.77
594.0  26269.26  5961.74  22.69
595.4  26286.44  5947.91  22.63
596.8  26295.56  5939.36  22.59
598.2  26315.92  5926.00  22.52
599.6  26317.98  5909.43  22.45
601.0  26398.05  5903.00  22.36
602.4  26470.93  5894.45  22.27
603.9  26597.64  5890.05  22.15
605.3  26727.57  5881.59  22.01
606.7  26857.80  5867.04  21.84
608.1  27088.39  5860.83  21.64
609.5  27333.21  5855.61  21.42
610.9  27623.29  5855.77  21.20
612.3  27891.32  5846.52  20.96
613.7  28252.28  5855.24  20.72
615.1  28513.62  5833.73  20.46
616.5  28776.05  5817.59  20.22
617.9  29165.50  5834.17  20.00
619.3  29543.24  5850.97  19.80
620.7  29990.55  5892.81  19.65
622.1  30437.05  5938.68  19.51
623.5  30934.60  6007.67  19.42
624.9  31494.75  6086.54  19.33
626.3  31867.36  6138.19  19.26
627.7  31569.69  6054.30  19.18
629.1  31287.59  5964.25  19.06
630.5  31184.65  5897.78  18.91
631.9  31222.21  5897.78  18.89
633.3  31256.33  5903.81  18.89
634.7  31400.48  5910.44  18.82
636.1  31461.82  5852.89  18.60
637.5  31554.77  5758.54  18.25
638.9  31702.82  5750.66  18.14
640.2  31825.04  5728.14  18.00
641.6  31863.78  5651.88  17.74
643.0  31847.61  5543.11  17.41
644.4  31829.55  5439.20  17.09
645.8  31751.71  5308.18  16.72
647.2  31867.94  5204.78  16.33
648.5  31926.34  5099.37  15.97
649.9  31776.23  4953.73  15.59
651.3  31648.05  4815.42  15.22
652.7  31449.15  4670.92  14.85
654.1  31244.46  4560.84  14.60
655.5  31005.95  4451.87  14.36
656.8  30780.41  4332.91  14.08
658.2  30925.42  4259.93  13.77
659.6  31264.45  4198.43  13.43
660.9  31536.04  4113.18  13.04
662.3  31822.64  4034.17  12.68
663.7  32096.40  3949.96  12.31
665.0  32332.90  3868.17  11.96
666.4  32562.99  3782.80  11.62
667.8  32863.56  3723.94  11.33
669.1  33114.69  3676.37  11.10
670.5  33405.09  3645.46  10.91
671.9  33586.56  3617.87  10.77
673.2  33844.75  3614.74  10.68
674.6  34082.18  3630.78  10.65
676.0  34372.41  3663.08  10.66
677.3  34659.68  3710.10  10.70
678.7  34979.63  3794.97  10.85
680.0  35399.92  3920.38  11.07
681.4  35845.89  4085.52  11.40
682.8  36270.33  4300.36  11.86
684.1  36705.24  4579.53  12.48
685.5  37104.21  4918.08  13.25
686.8  37507.62  5340.17  14.24
688.2  37862.83  5824.15  15.38
689.5  38000.96  6354.13  16.72
690.9  38124.79  6931.20  18.18
692.2  38229.60  7557.52  19.77
693.6  38334.37  8223.22  21.45
694.9  38335.34  8880.81  23.17
696.2  38393.33  9562.02  24.91
697.6  38453.39  10238.91  26.63
698.9  38522.88  10918.34  28.34
700.3  38613.54  11573.56  29.97
701.6  38716.02  12218.18  31.56
703.0  38828.83  12842.02  33.07
704.3  38882.19  13439.75  34.57
705.6  38895.39  13984.60  35.95
707.0  38949.12  14515.01  37.27
708.3  38885.46  14977.98  38.52
709.6  38817.35  15416.83  39.72
711.0  38702.88  15819.48  40.87
712.3  38573.15  16185.35  41.96
713.6  38531.64  16569.45  43.00
714.9  38462.14  16902.84  43.95
716.3  38461.08  17266.95  44.89
717.6  38479.84  17628.56  45.81
718.9  38424.85  17930.39  46.66
720.2  38251.08  18158.73  47.47
721.6  38113.53  18394.88  48.26
722.9  37945.16  18587.74  48.99
724.2  37714.27  18730.62  49.66
725.5  37534.96  18880.37  50.30
726.8  37360.68  19029.49  50.93
728.1  37271.09  19202.04  51.52
729.5  37167.13  19348.73  52.06
730.8  37093.13  19482.61  52.52
732.1  36996.92  19589.33  52.95
733.4  36936.39  19716.62  53.38
734.7  36864.47  19833.87  53.80
736.0  36851.62  19946.28  54.13
737.3  36774.45  20017.39  54.43
738.6  36845.76  20160.98  54.72
739.9  37000.34  20344.17  54.98
741.2  37119.81  20508.85  55.25
742.5  37372.03  20732.27  55.48
743.8  37768.50  21032.17  55.69
745.1  38387.22  21454.89  55.89
746.4  39127.73  21923.84  56.03
747.7  39918.22  22397.38  56.11
749.0  40672.12  22887.92  56.27
750.3  41122.66  23186.30  56.38
751.6  41047.35  23181.82  56.48
752.9  40630.59  22960.86  56.51
754.2  40176.47  22765.47  56.66
755.4  39652.21  22523.93  56.80
756.7  39478.17  22457.95  56.89
758.0  39495.60  22493.40  56.95
759.3  39730.28  22671.77  57.06
760.6  40061.56  22893.02  57.14
761.9  40384.10  23094.03  57.19
763.1  40567.56  23226.57  57.25
764.4  40796.65  23381.24  57.31
765.7  40953.25  23479.73  57.33
767.0  41079.80  23576.77  57.39
768.2  41207.04  23657.09  57.41
769.5  41279.98  23715.17  57.45
770.8  41469.61  23847.70  57.51
772.0  41501.32  23873.45  57.52
773.3  41583.65  23915.32  57.51
774.6  41708.58  23993.18  57.53
775.8  41815.15  24082.96  57.59
777.1  41846.51  24106.33  57.61
778.4  41799.94  24090.40  57.63
779.6  41775.90  24104.53  57.70
780.9  41704.00  24068.27  57.71
782.1  41523.21  23966.93  57.72
783.4  41558.40  23987.12  57.72
784.6  41567.36  24014.22  57.77
785.9  41861.56  24188.66  57.78
787.1  42409.87  24525.45  57.83
788.4  42854.47  24786.64  57.84
789.6  42849.18  24783.12  57.84
790.9  42483.96  24582.91  57.86
792.1  42011.92  24319.32  57.89
793.4  41570.15  24075.60  57.92
794.6  41283.15  23915.50  57.93
795.8  41024.39  23791.76  57.99
797.1  40758.68  23632.62  57.98
798.3  40551.64  23533.90  58.03
799.5  40444.72  23481.42  58.06
800.8  40323.21  23428.96  58.10
802.0  40187.32  23349.11  58.10
803.2  40033.64  23279.81  58.15
804.5  39942.72  23229.97  58.16
805.7  39829.66  23178.71  58.19
806.9  39715.93  23107.67  58.18
808.1  39632.97  23048.04  58.15
809.4  39553.39  23037.80  58.24
810.6  39489.45  23015.11  58.28
811.8  39474.39  23007.60  58.28
813.0  39504.71  23022.75  58.28
814.2  39525.61  23054.66  58.33
815.4  39644.33  23134.80  58.36
816.6  39709.73  23168.91  58.35
817.9  39791.57  23215.07  58.34
819.1  39719.87  23195.56  58.40
820.3  39621.11  23122.56  58.36
821.5  39546.25  23077.02  58.35
822.7  39480.04  23065.37  58.42
823.9  39499.25  23067.55  58.40
825.1  39541.96  23085.95  58.38
826.3  39583.35  23124.96  58.42
827.5  39640.56  23165.57  58.44
828.7  39708.48  23198.24  58.42
829.9  39767.03  23233.79  58.42
831.0  39870.82  23293.59  58.42
832.2  39993.87  23364.58  58.42
833.4  40076.64  23420.69  58.44
834.6  40148.44  23471.88  58.46
835.8  40238.10  23525.46  58.47
837.0  40328.28  23583.23  58.48
838.1  40500.72  23677.05  58.46
839.3  40601.19  23748.07  58.49
840.5  40716.87  23810.58  58.48
841.7  40854.11  23890.09  58.48
842.9  40980.73  23965.20  58.48
844.0  41100.82  24029.17  58.46
845.2  41245.09  24127.02  58.50
846.4  41368.25  24199.17  58.50
847.5  41564.18  24328.93  58.53
848.7  41743.64  24421.15  58.50
849.9  41936.76  24553.41  58.55
851.0  42020.98  24601.23  58.55
852.2  42107.61  24645.33  58.53
853.3  42066.96  24617.01  58.52
854.5  42098.11  24626.19  58.50
855.6  42095.43  24631.34  58.51
856.8  42111.00  24668.17  58.58
857.9  42111.88  24655.92  58.55
859.1  42240.60  24728.08  58.54
860.2  42245.56  24726.45  58.53
861.4  42273.83  24750.90  58.55
862.5  42309.54  24776.14  58.56
863.7  42384.63  24842.57  58.61
864.8  42387.10  24842.63  58.61
865.9  42333.82  24798.41  58.58
867.1  42372.33  24821.73  58.58
868.2  42368.54  24831.55  58.61
869.3  42393.50  24831.72  58.57
870.5  42342.80  24786.75  58.54
871.6  42318.48  24778.07  58.55
872.7  42385.23  24817.67  58.55
873.9  42404.90  24859.20  58.62
875.0  42391.36  24818.21  58.55
876.1  42363.75  24806.16  58.56
877.2  42397.32  24839.47  58.59
878.3  42381.77  24828.50  58.58
879.4  42397.70  24823.31  58.55
880.5  42451.56  24867.60  58.58
881.7  42410.55  24829.48  58.55
882.8  42454.72  24853.70  58.54
883.9  42482.63  24867.80  58.54
885.0  42446.04  24841.82  58.53
886.1  42420.10  24825.14  58.52
887.2  42295.80  24770.43  58.56
888.3  42201.80  24717.38  58.57
889.4  42117.30  24635.15  58.49
890.5  42026.34  24599.26  58.53
891.6  41981.69  24586.91  58.57
892.7  41962.31  24552.50  58.51
893.8  41981.79  24558.57  58.50
894.9  41952.35  24551.18  58.52
896.0  41968.71  24529.62  58.45
897.0  41952.48  24551.07  58.52
898.1  41951.64  24571.01  58.57
899.2  41983.30  24545.52  58.46
900.3  41907.57  24487.87  58.43
901.4  41820.39  24444.88  58.45
902.4  41828.99  24462.90  58.48
903.5  41775.96  24408.92  58.43
904.6  41798.96  24416.14  58.41
905.7  41805.42  24418.64  58.41
906.7  41815.90  24411.24  58.38
907.8  41839.20  24429.45  58.39
908.9  41746.38  24385.74  58.41
909.9  41734.69  24373.71  58.40
911.0  41681.88  24331.75  58.37
912.1  41602.05  24293.76  58.40
913.1  41535.52  24261.33  58.41
914.2  41457.24  24171.48  58.30
915.2  41368.59  24162.48  58.41
916.3  41436.15  24168.24  58.33
917.3  41410.15  24144.98  58.31
918.4  41310.50  24097.11  58.33
919.4  41328.17  24088.45  58.29
920.5  41309.67  24073.03  58.27
921.5  41323.66  24073.83  58.26
922.6  41255.80  24037.97  58.27
923.6  41303.54  24052.05  58.23
924.7  41344.50  24041.30  58.15
925.7  41333.16  24039.70  58.16
926.7  41356.90  24060.87  58.18
927.8  41415.30  24094.83  58.18
928.8  41570.85  24149.51  58.09
929.9  41658.93  24188.18  58.06
930.9  41879.39  24316.23  58.06
931.9  42070.56  24393.54  57.98
932.9  42412.10  24600.41  58.00
934.0  42452.50  24570.82  57.88
935.0  42440.57  24601.86  57.97
936.0  42488.02  24564.95  57.82
937.0  42429.47  24535.42  57.83
938.1  42380.86  24484.06  57.77
939.1  42337.65  24448.40  57.75
940.1  42429.30  24482.33  57.70
941.1  42615.86  24600.08  57.73
942.1  42903.92  24703.39  57.58
943.1  43057.09  24778.23  57.55
944.1  43342.63  24895.55  57.44
945.2  43356.60  24915.07  57.47
946.2  43482.48  24926.79  57.33
947.2  43549.00  24952.40  57.30
948.2  43743.16  25037.53  57.24
949.2  43840.88  25022.73  57.08
950.2  43906.25  25018.37  56.98
951.2  44010.96  25045.22  56.91
952.2  44061.91  25093.84  56.95
953.2  44318.14  25140.72  56.73
954.2  44380.80  25167.21  56.71
955.2  44428.35  25151.49  56.61
956.2  44460.20  25129.41  56.52
957.2  44542.35  25122.52  56.40
958.2  44649.94  25180.96  56.40
959.2  44705.25  25219.20  56.41
960.1  44813.66  25196.41  56.22
961.1  44928.76  25238.56  56.17
962.1  44958.75  25208.25  56.07
963.1  44986.01  25259.78  56.15
964.1  45106.16  25309.26  56.11
965.1  45270.70  25346.48  55.99
966.1  45207.41  25361.79  56.10
967.0  45355.66  25398.09  56.00
968.0  45441.48  25355.21  55.80
969.0  45453.60  25417.49  55.92
970.0  45557.64  25442.24  55.85
971.0  45615.57  25485.78  55.87
971.9  45699.86  25522.64  55.85
972.9  45781.93  25538.22  55.78
973.9  45829.88  25541.49  55.73
974.9  45973.78  25621.79  55.73
975.8  45979.65  25646.43  55.78
976.8  46106.16  25653.86  55.64
977.8  46097.80  25677.14  55.70
978.8  46103.70  25741.80  55.83
979.7  46387.55  25781.46  55.58
980.7  46405.76  25804.84  55.61
981.7  46694.84  25889.40  55.44
982.6  46857.76  26002.22  55.49
983.6  47433.79  26241.34  55.32
984.6  47818.98  26453.40  55.32
985.5  48063.24  26807.23  55.77
986.5  48770.77  27138.78  55.65
987.5  50043.63  27520.94  54.99
988.4  50895.90  27998.08  55.01
989.4  52431.75  28596.11  54.54
990.4  53425.02  29466.48  55.15
991.3  55387.31  30085.25  54.32
992.3  55950.90  31014.27  55.43
993.2  58118.31  31744.41  54.62
994.2  59457.94  32655.48  54.92
995.2  60710.63  32789.34  54.01
996.1  61737.77  33375.07  54.06
997.1  61885.85  33396.65  53.96
998.0  61668.00  33209.36  53.85
999.0  61787.86  33628.01  54.42
1000.0  62252.49  33351.33  53.57
1000.9  62564.91  33420.42  53.42
1001.9  61626.12  33515.96  54.39
1002.8  61885.09  33730.16  54.50
1003.8  61970.58  32643.66  52.68
1004.8  62064.96  32979.62  53.14
961.5  55881.62  26909.55  48.15
965.5  54589.44  26555.49  48.65
969.5  52393.79  25799.48  49.24
973.4  50126.74  25063.37  50.00
977.4  48345.52  24473.01  50.62
981.4  47464.01  24334.63  51.27
985.3  47176.98  24519.44  51.97
989.3  47304.75  24875.29  52.59
993.3  47508.66  25237.27  53.12
997.2  47541.75  25470.80  53.58
1001.2  47520.33  25591.76  53.85
1005.2  47455.76  25637.25  54.02
1009.1  47529.68  25735.27  54.15
1013.1  47663.39  25894.78  54.33
1017.1  47785.75  26053.04  54.52
1021.0  47816.50  26156.65  54.70
1025.0  47819.30  26244.90  54.88
1029.0  47652.00  26223.04  55.03
1032.9  47495.63  26191.62  55.15
1036.9  47497.16  26237.82  55.24
1040.9  47608.97  26342.10  55.33
1044.8  47827.54  26503.16  55.41
1048.8  48004.98  26645.96  55.51
1052.7  48133.54  26766.04  55.61
1056.7  48188.20  26820.75  55.66
1060.7  48194.60  26851.30  55.71
1064.6  48198.22  26883.09  55.78
1068.6  48113.17  26843.31  55.79
1072.5  48026.55  26799.34  55.80
1076.5  47975.49  26782.58  55.83
1080.4  47966.69  26767.85  55.81
1084.4  48069.59  26812.85  55.78
1088.3  48170.15  26874.32  55.79
1092.3  48152.58  26840.63  55.74
1096.2  48142.77  26791.29  55.65
1100.2  48183.64  26782.94  55.59
1104.1  48079.94  26692.88  55.52
1108.1  48035.13  26605.79  55.39
1112.0  47943.86  26501.09  55.28
1116.0  47742.57  26332.89  55.16
1119.9  47581.47  26156.61  54.97
1123.9  47666.30  26084.58  54.72
1127.8  47639.04  25911.04  54.39
1131.8  47617.38  25694.64  53.96
1135.7  47659.94  25457.62  53.42
1139.6  47675.62  25148.23  52.75
1143.6  47638.82  24787.16  52.03
1147.5  47616.88  24437.93  51.32
1151.4  47500.80  24060.89  50.65
1155.4  47513.75  23829.69  50.15
1159.3  47522.52  23683.69  49.84
1163.2  47363.89  23487.10  49.59
1167.2  47347.50  23392.32  49.41
1171.1  47369.57  23339.44  49.27
1175.0  47314.40  23255.96  49.15
1179.0  47268.08  23188.60  49.06
1182.9  47358.68  23183.16  48.95
1186.8  47350.70  23139.24  48.87
1190.7  47139.70  22982.72  48.75
1194.7  46883.87  22820.71  48.67
1198.6  46652.76  22698.06  48.65
1202.5  46480.48  22613.34  48.65
1206.4  46340.80  22557.86  48.68
1210.3  46236.01  22533.99  48.74
1214.2  46114.66  22525.18  48.85
1218.2  45952.68  22504.20  48.97
1222.1  45800.88  22493.79  49.11
1226.0  45686.61  22504.58  49.26
1229.9  45598.02  22531.36  49.41
1233.8  45484.04  22536.94  49.55
1237.7  45416.66  22545.29  49.64
1241.6  45332.53  22552.44  49.75
1245.5  45166.97  22511.49  49.84
1249.4  45023.84  22467.49  49.90
1253.3  44894.25  22428.82  49.96
1257.2  44816.00  22400.16  49.98
1261.1  44716.86  22346.28  49.97
1265.0  44587.73  22270.20  49.95
1268.9  44400.64  22163.98  49.92
1272.8  44460.00  22179.65  49.89
1276.7  44653.74  22251.93  49.83
1280.6  44733.81  22252.29  49.74
1284.5  44649.07  22153.37  49.62
1288.4  44631.63  22077.95  49.47
1292.3  44511.50  21941.33  49.29
1296.2  44360.33  21782.56  49.10
1300.1  44197.71  21592.71  48.85
1303.9  43963.66  21354.56  48.57
1307.8  43715.49  21093.88  48.25
1311.7  43464.03  20804.87  47.87
1315.6  43214.30  20497.78  47.43
1319.5  42962.15  20154.71  46.91
1323.3  42734.84  19809.41  46.35
1327.2  42525.95  19461.09  45.76
1331.1  42285.13  19087.49  45.14
1335.0  41985.32  18681.97  44.50
1338.8  41775.29  18304.75  43.82
1342.7  41609.18  17960.94  43.17
1346.5  41242.98  17546.71  42.54
1350.4  40931.78  17164.94  41.94
1354.3  40517.39  16748.39  41.34
1358.1  40047.65  16313.08  40.73
1362.0  39764.09  15928.39  40.06
1365.8  39670.89  15592.65  39.31
1369.7  39786.92  15321.19  38.51
1373.5  39741.56  14929.50  37.57
1377.4  39487.75  14362.67  36.37
1381.2  39276.49  13660.00  34.78
1385.1  39242.56  12907.34  32.89
1389.0  39129.70  12088.21  30.89
1392.8  38925.66  11199.44  28.77
1396.6  38773.68  10335.47  26.66
1400.5  38560.99  9511.55  24.67
1404.3  38397.74  8800.04  22.92
1408.2  38363.03  8221.87  21.43
1412.0  38325.01  7746.50  20.21
1415.8  38359.09  7393.34  19.27
1419.6  38319.36  7097.84  18.52
1423.5  38299.37  6871.11  17.94
1427.3  38266.05  6704.60  17.52
1431.1  38248.58  6585.18  17.22
1434.9  38159.15  6485.47  17.00
1438.8  38104.90  6417.95  16.84
1442.6  38084.31  6377.01  16.74
1446.4  37958.74  6331.07  16.68
1450.2  37871.04  6316.44  16.68
1454.0  37772.76  6308.76  16.70
1457.8  37752.26  6325.76  16.76
1461.6  37732.17  6360.42  16.86
1465.4  37609.21  6396.85  17.01
1469.2  37426.03  6448.87  17.23
1473.0  37290.43  6523.61  17.49
1476.8  37245.30  6640.37  17.83
1480.7  37186.44  6776.23  18.22
1484.4  37061.40  6909.92  18.64
1488.2  36961.08  7060.40  19.10
1492.0  36836.53  7216.92  19.59
1495.8  36720.78  7371.00  20.07
1499.6  36605.30  7513.87  20.53
1503.4  36479.87  7648.79  20.97
1507.2  36356.05  7780.49  21.40
1510.9  36204.04  7898.26  21.82
1514.7  36047.88  8002.02  22.20
1518.5  35919.58  8124.27  22.62
1522.3  35781.38  8249.65  23.06
1526.0  35674.52  8379.53  23.49
1529.8  35609.17  8524.79  23.94
1533.6  35484.33  8635.87  24.34
1537.3  35352.32  8728.43  24.69
1541.1  35225.58  8816.61  25.03
1544.8  35097.60  8900.80  25.36
1548.6  34949.35  8982.14  25.70
1552.4  34850.72  9071.00  26.03
1556.1  34790.76  9173.26  26.37
1559.9  34705.82  9275.16  26.73
1563.6  34578.39  9359.31  27.07
1567.3  34459.02  9441.30  27.40
1571.1  34243.92  9485.93  27.70
1574.8  34100.68  9551.98  28.01
1578.6  34000.34  9623.64  28.30
1582.3  33854.52  9665.10  28.55
1586.0  33716.51  9708.59  28.79
1589.8  33582.95  9742.70  29.01
1593.5  33431.04  9764.93  29.21
1597.2  33294.67  9798.48  29.43
1600.9  33154.19  9832.27  29.66
1604.7  33000.40  9858.71  29.87
1608.4  32856.34  9883.05  30.08
1612.1  32695.22  9898.76  30.28
1615.8  32545.96  9908.71  30.45
1619.5  32465.11  9934.82  30.60
1623.2  32316.22  9940.85  30.76
1626.9  32130.25  9927.78  30.90
1630.6  31953.68  9912.32  31.02
1634.3  31816.04  9910.58  31.15
1638.0  31668.49  9903.58  31.27
1641.7  31487.82  9880.22  31.38
1645.4  31299.16  9847.32  31.46
1649.1  31105.38  9800.99  31.51
1652.8  30949.76  9758.53  31.53
1656.4  30780.36  9698.20  31.51
1660.1  30613.88  9639.32  31.49
1663.8  30416.03  9572.15  31.47
1667.5  30257.50  9516.48  31.45
1671.1  30134.40  9469.37  31.42
1674.8  29937.06  9409.77  31.43
1678.5  29873.87  9394.74  31.45
1682.1  29892.23  9386.63  31.40
1685.8  29901.92  9371.22  31.34
1689.5  29795.07  9318.10  31.27
1693.1  29653.44  9243.79  31.17
1696.8  29511.75  9156.42  31.03
1700.4  29358.15  9058.75  30.86
1704.0  29237.42  8962.82  30.66
1707.7  28983.16  8820.47  30.43
1711.3  28689.26  8660.38  30.19
1715.0  28479.20  8528.70  29.95
1718.6  28311.14  8414.75  29.72
1722.2  28171.19  8309.21  29.50
1725.9  28024.58  8207.42  29.29
1729.5  27888.80  8121.51  29.12
1733.1  27770.82  8050.24  28.99
1736.7  27655.67  7986.27  28.88
1740.3  27487.42  7898.71  28.74
1744.0  27395.86  7823.74  28.56
1747.5  27255.01  7730.90  28.37
1751.2  27041.09  7611.35  28.15
1754.8  26881.34  7512.75  27.95
1758.4  26750.86  7428.55  27.77
1762.0  26572.85  7337.42  27.61
1765.5  26446.23  7264.15  27.47
1769.1  26402.40  7219.20  27.34
1772.7  26328.38  7171.00  27.24
1776.3  26208.92  7105.00  27.11
1779.9  26081.92  7040.51  26.99
1783.5  26027.60  7000.21  26.90
1787.0  25897.14  6943.89  26.81
1790.6  25747.79  6889.35  26.76
1794.2  25651.68  6855.32  26.72
1797.8  25552.23  6821.28  26.70
1801.3  25471.95  6797.19  26.69
1804.9  25318.13  6762.88  26.71
1808.4  25235.40  6743.67  26.72
1812.0  25102.89  6707.86  26.72
1815.5  24947.72  6661.81  26.70
1819.1  24745.29  6609.55  26.71
1822.6  24588.72  6571.42  26.73
1826.2  24468.62  6529.66  26.69
1829.7  24298.19  6473.31  26.64
1833.2  24066.25  6392.15  26.56
1836.8  23846.10  6306.30  26.45
1840.3  23701.28  6236.03  26.31
1843.8  23605.26  6166.00  26.12
1847.3  23552.23  6101.11  25.90
1850.8  23482.37  6013.05  25.61
1854.3  23328.90  5878.42  25.20
1857.8  23249.20  5720.00  24.60
1861.3  23245.10  5545.87  23.86
1864.8  23154.55  5310.57  22.94
1868.3  22923.75  4984.81  21.75
1871.8  22725.12  4602.88  20.25
1875.3  22663.55  4241.36  18.71
1878.8  22668.35  3903.09  17.22
1882.3  22613.87  3553.57  15.71
1885.8  22446.65  3209.72  14.30
1889.3  22245.45  2897.11  13.02
1892.7  22073.02  2656.20  12.03
1896.2  21956.57  2492.14  11.35
1899.7  21800.31  2384.64  10.94
1903.1  21719.54  2384.54  10.98
1906.6  21807.87  2476.59  11.36
1910.0  22098.88  2738.04  12.39
1913.5  22634.73  3155.31  13.94
1917.0  23151.98  3766.35  16.27
1920.4  23436.08  4360.56  18.61
1923.8  23677.97  4695.86  19.83
1871.2  20787.15  3628.59  17.46
1873.9  20907.54  3472.06  16.61
1876.7  21048.38  3228.48  15.34
1879.5  21252.88  2976.22  14.00
1882.3  20993.42  2685.45  12.79
1885.1  20851.78  2425.09  11.63
1887.8  20921.79  2193.62  10.48
1890.6  20723.54  1946.57  9.39
1893.4  20650.67  1740.44  8.43
1896.2  20581.86  1595.39  7.75
1898.9  20516.13  1473.08  7.18
1901.7  20380.18  1336.34  6.56
1904.5  20546.36  1274.89  6.20
1907.2  20463.00  1219.17  5.96
1910.0  20358.58  1161.54  5.71
1912.7  20364.96  1127.60  5.54
1915.5  20273.08  1100.15  5.43
1918.2  20210.43  1091.39  5.40
1921.0  20079.87  1071.61  5.34
1923.7  20126.73  1063.87  5.29
1926.5  20096.89  1068.19  5.32
1929.2  20080.15  1068.89  5.32
1932.0  20066.00  1065.97  5.31
1934.7  20016.92  1062.03  5.31
1937.4  19925.11  1059.73  5.32
1940.2  19881.39  1079.76  5.43
1942.9  19959.98  1116.50  5.59
1945.6  19965.22  1128.47  5.65
1948.3  19894.11  1125.12  5.66
1951.1  19862.99  1142.80  5.75
1953.8  19866.00  1179.00  5.93
1956.5  19752.03  1193.01  6.04
1959.2  19805.76  1210.95  6.11
1961.9  19837.86  1225.77  6.18
1964.6  19745.08  1250.49  6.33
1967.3  19784.70  1293.47  6.54
1970.0  19621.84  1308.32  6.67
1972.8  19538.55  1328.66  6.80
1975.5  19602.81  1367.73  6.98
1978.2  19540.64  1392.84  7.13
1980.9  19419.73  1408.92  7.26
1983.5  19352.05  1432.84  7.40
1986.2  19366.05  1465.67  7.57
1988.9  19348.59  1506.41  7.79
1991.6  19202.00  1526.55  7.95
1994.3  19065.89  1544.30  8.10
1997.0  19096.32  1592.56  8.34
1999.7  19065.00  1620.58  8.50
2002.3  19034.90  1647.37  8.65
2005.0  18965.86  1683.81  8.88
2007.7  18877.00  1711.40  9.07
2010.4  18811.60  1742.50  9.26
2013.0  18774.16  1773.39  9.45
2015.7  18678.28  1796.88  9.62
2018.4  18548.96  1806.96  9.74
2021.0  18504.50  1826.56  9.87
2023.7  18401.60  1862.77  10.12
2026.4  18333.68  1889.04  10.30
2029.0  18267.40  1900.69  10.40
2031.7  18144.97  1913.46  10.55
2034.3  18142.15  1937.87  10.68
2037.0  18035.71  1956.43  10.85
2039.6  17974.39  1985.28  11.05
2042.3  17908.74  1999.53  11.17
2044.9  17825.78  2014.93  11.30
2047.5  17820.17  2038.30  11.44
2050.2  17715.60  2037.47  11.50
2052.8  17679.20  2062.67  11.67
2055.4  17538.43  2082.57  11.87
2058.1  17416.00  2079.47  11.94
2060.7  17404.47  2093.46  12.03
2063.3  17299.63  2100.22  12.14
2065.9  17230.17  2112.36  12.26
2068.6  17165.96  2136.56  12.45
2071.2  17119.44  2152.95  12.58
2073.8  17041.85  2155.65  12.65
2076.4  16999.98  2167.68  12.75
2079.0  17011.74  2187.12  12.86
2081.6  16984.09  2206.59  12.99
2084.2  16930.00  2228.18  13.16
2086.8  16834.24  2223.07  13.21
2089.4  16742.01  2223.95  13.28
2092.1  16637.33  2238.33  13.45
2094.7  16574.28  2254.35  13.60
2097.2  16549.50  2274.22  13.74
2099.8  16541.98  2286.82  13.82
2102.4  16400.35  2283.20  13.92
2105.0  16267.80  2278.10  14.00
2107.6  16238.35  2283.41  14.06
2110.2  16217.39  2303.64  14.20
2112.8  16200.74  2322.16  14.33
2115.3  16182.65  2337.24  14.44
2117.9  16188.40  2347.45  14.50
2120.5  16181.17  2356.30  14.56
2123.1  16113.83  2355.60  14.62
2125.6  16056.05  2368.05  14.75
2128.2  15953.26  2358.89  14.79
2130.8  15859.35  2356.58  14.86
2133.3  15825.33  2371.11  14.98
2135.9  15723.21  2362.16  15.02
2138.4  15584.92  2363.23  15.16
2141.0  15487.96  2348.71  15.16
2143.6  15482.13  2349.25  15.17
2146.1  15358.67  2348.71  15.29
2148.7  15182.57  2332.69  15.36
2151.2  15188.80  2346.67  15.45
2153.8  15199.37  2366.44  15.57
2156.3  15064.95  2356.76  15.64
2158.8  14994.07  2354.79  15.70
2161.4  14983.43  2358.67  15.74
2163.9  14894.98  2361.62  15.86
2166.4  14806.99  2363.36  15.96
2169.0  14777.42  2361.39  15.98
2171.5  14688.72  2354.49  16.03
2174.0  14586.43  2361.16  16.19
2176.5  14576.25  2371.07  16.27
2179.1  14537.32  2370.18  16.30
2181.6  14435.75  2358.31  16.34
2184.1  14405.16  2351.07  16.32
2186.6  14458.30  2379.90  16.46
2189.1  14358.33  2372.19  16.52
2191.6  14308.00  2365.07  16.53
2194.1  14339.64  2381.64  16.61
2196.6  14340.73  2390.12  16.67
2199.2  14399.84  2408.11  16.72
2201.7  14323.09  2404.49  16.79
2204.1  14264.18  2385.92  16.73
2206.6  14278.44  2399.63  16.81
2209.1  14246.74  2411.05  16.92
2211.6  14236.93  2393.12  16.81
2214.1  14172.61  2397.59  16.92
2216.6  14103.21  2401.81  17.03
2219.1  14137.40  2404.34  17.01
2221.6  14080.86  2390.59  16.98
2224.0  14024.61  2363.47  16.85
2226.5  13983.38  2343.88  16.76
2229.0  13981.89  2353.79  16.83
2231.5  13918.22  2343.96  16.84
2233.9  13896.33  2337.22  16.82
2236.4  13868.98  2327.58  16.78
2238.9  13826.00  2288.84  16.55
2241.3  13828.76  2263.34  16.37
2243.8  13758.80  2252.97  16.37
2246.2  13610.98  2227.79  16.37
2248.7  13571.61  2200.87  16.22
2251.2  13563.12  2181.73  16.09
2253.6  13482.24  2129.92  15.80
2256.1  13474.56  2126.08  15.78
2258.5  13495.78  2106.52  15.61
2260.9  13407.16  2056.84  15.34
2263.4  13372.75  2044.55  15.29
2265.8  13367.17  2029.76  15.18
2268.3  13288.30  2004.98  15.09
2270.7  13342.05  1988.26  14.90
2273.1  13272.94  1952.02  14.71
2275.6  13194.24  1920.00  14.55
2278.0  13232.60  1899.89  14.36
2280.4  13249.81  1890.81  14.27
2282.8  13117.21  1864.86  14.22
2285.3  13103.68  1836.59  14.02
2287.7  13191.09  1840.56  13.95
2290.1  13097.39  1796.13  13.71
2292.5  13047.88  1757.97  13.47
2294.9  13056.31  1745.32  13.37
2297.3  12972.40  1691.43  13.04
2299.7  12875.52  1664.88  12.93
2302.1  12826.01  1662.99  12.97
2304.5  12696.88  1626.80  12.81
2306.9  12602.80  1583.68  12.57
2309.3  12519.08  1577.78  12.60
2311.7  12473.65  1584.39  12.70
2314.1  12315.17  1560.89  12.67
2316.5  12229.76  1553.67  12.70
2318.9  12290.12  1549.08  12.60
2321.3  12265.32  1543.73  12.59
2323.7  12235.57  1538.76  12.58
2326.1  12214.93  1519.31  12.44
2328.4  12270.09  1513.42  12.33
2330.8  12319.08  1499.67  12.17
2333.2  12235.57  1478.48  12.08
2335.6  12168.54  1460.01  12.00
2337.9  12202.83  1431.45  11.73
2340.3  12141.58  1413.44  11.64
2342.7  12039.09  1402.09  11.65
2345.0  12013.82  1361.76  11.33
2347.4  11993.50  1337.33  11.15
2349.7  11798.34  1314.25  11.14
2352.1  11775.76  1296.51  11.01
2354.4  11820.42  1308.13  11.07
2356.8  11728.38  1299.32  11.08
2359.2  11704.33  1295.67  11.07
2361.5  11645.74  1288.64  11.07
2363.8  11633.53  1256.02  10.80
2366.2  11660.03  1243.09  10.66
2368.5  11627.85  1231.17  10.59
2370.9  11603.83  1201.83  10.36
2373.2  11533.95  1191.62  10.33
2375.5  11398.48  1175.00  10.31
2377.9  11373.04  1153.26  10.14
2380.2  11408.35  1153.05  10.11
2382.5  11308.30  1153.35  10.20
2384.8  11261.28  1129.07  10.03
2387.2  11252.00  1095.51  9.74
2389.5  11242.29  1084.41  9.65
2391.8  11232.13  1067.92  9.51
2394.1  11132.13  1066.83  9.58
2396.4  11089.46  1061.21  9.57
2398.7  11160.99  1045.79  9.37
2401.0  11096.58  1013.73  9.14
2403.3  10926.12  992.68  9.09
2405.6  10921.36  999.67  9.15
2407.9  10891.74  983.63  9.03
2410.2  10793.71  939.16  8.70
2412.5  10752.81  957.05  8.90
2414.8  10737.29  949.98  8.85
2417.1  10694.97  915.34  8.56
2419.4  10638.82  916.96  8.62
2421.7  10597.44  907.65  8.56
2424.0  10571.95  898.17  8.50
2426.2  10576.95  879.18  8.31
2428.5  10508.39  870.74  8.29
2430.8  10485.80  848.38  8.09
2433.1  10443.79  816.84  7.82
2435.4  10361.94  794.49  7.67
2437.6  10328.37  794.49  7.69
2439.9  10224.92  767.39  7.51
2442.2  10193.49  752.76  7.38
2444.4  10223.13  746.63  7.30
2446.7  10173.28  735.84  7.23
2448.9  10197.11  740.21  7.26
2451.2  10173.72  758.91  7.46
2453.4  10028.37  747.30  7.45
2455.7  9998.26  703.45  7.04
2457.9  9908.42  704.11  7.11
2460.2  9870.17  694.59  7.04
2462.4  9896.64  659.36  6.66
2464.7  9834.69  662.38  6.74
2466.9  9751.98  656.98  6.74
2469.2  9722.50  639.53  6.58
2471.4  9624.29  630.24  6.55
2473.6  9553.77  631.56  6.61
2475.9  9536.85  618.63  6.49
2478.1  9427.70  580.69  6.16
2480.3  9377.37  568.54  6.06
2482.5  9321.43  598.08  6.42
2484.8  9240.44  592.24  6.41
2487.0  9258.33  570.32  6.16
2489.2  9302.30  593.02  6.37
2491.4  9183.58  568.69  6.19
2493.6  9147.34  512.10  5.60
2495.8  9177.35  549.01  5.98
2498.0  9103.79  556.66  6.11
2500.2  9132.70  533.59  5.84
2502.4  9403.92  512.08  5.45
2504.6  9512.07  525.84  5.53
2506.8  9585.80  587.75  6.13
