/*** Spectra Vista SIG Data ***/
name= GT.sig
comm= SIG file reprocesed for matching/overlap;Averaged Ref/Tar of files: GT1,GT2,GT3
data=
346.4  468.20  171.99  36.73
347.9  473.76  175.18  36.98
349.5  521.04  171.08  32.83
351.1  558.48  180.96  32.40
352.6  585.06  185.01  31.62
354.2  625.05  186.54  29.84
355.7  673.50  202.05  30.00
357.3  724.71  210.94  29.11
358.8  751.43  208.54  27.75
360.4  798.47  216.91  27.17
361.9  821.87  218.24  26.55
363.5  851.78  221.60  26.02
365.1  887.68  220.19  24.81
366.6  918.37  222.11  24.19
368.2  973.68  219.92  22.59
369.7  1008.89  221.48  21.95
371.3  1073.36  229.93  21.42
372.8  1148.72  235.17  20.47
374.4  1191.49  233.07  19.56
375.9  1247.87  241.08  19.32
377.4  1278.23  242.86  19.00
379.0  1330.29  244.00  18.34
380.5  1360.26  243.64  17.91
382.1  1412.49  240.84  17.05
383.6  1460.03  241.45  16.54
385.2  1529.00  240.17  15.71
386.7  1608.26  245.03  15.24
388.3  1679.42  254.54  15.16
389.8  1759.55  259.86  14.77
391.3  1843.67  275.72  14.95
392.9  1897.62  283.08  14.92
394.4  1955.58  291.80  14.92
395.9  2019.02  311.38  15.42
397.5  2131.80  326.23  15.30
399.0  2240.25  335.27  14.97
400.6  2303.62  317.90  13.80
402.1  2342.64  316.91  13.53
403.6  2375.92  311.28  13.10
405.1  2451.81  314.19  12.81
406.7  2542.40  324.05  12.75
408.2  2650.73  330.78  12.48
409.7  2746.24  346.83  12.63
411.3  2843.51  356.49  12.54
412.8  2936.43  378.41  12.89
414.3  3034.90  388.34  12.80
415.8  3152.50  410.00  13.01
417.4  3253.58  424.62  13.05
418.9  3339.60  436.43  13.07
420.4  3424.70  445.33  13.00
421.9  3487.22  446.49  12.80
423.5  3546.87  453.38  12.78
425.0  3613.98  455.50  12.60
426.5  3695.85  462.25  12.51
428.0  3801.23  467.29  12.29
429.5  3926.30  476.97  12.15
431.1  4071.24  492.14  12.09
432.6  4225.66  507.54  12.01
434.1  4373.60  525.20  12.01
435.6  4514.36  537.93  11.92
437.1  4642.95  556.73  11.99
438.6  4769.06  572.47  12.00
440.1  4906.69  587.81  11.98
441.6  5042.30  609.10  12.08
443.1  5179.95  630.45  12.17
444.7  5318.34  655.20  12.32
446.2  5433.01  679.92  12.51
447.7  5551.25  705.14  12.70
449.2  5676.48  730.80  12.87
450.7  5788.64  748.45  12.93
452.2  5916.62  761.44  12.87
453.7  6028.91  784.11  13.01
455.2  6201.73  805.66  12.99
456.7  6390.56  832.48  13.03
458.2  6607.30  865.60  13.10
459.7  6823.25  896.00  13.13
461.2  7031.76  923.39  13.13
462.7  7219.07  955.26  13.23
464.2  7396.86  975.39  13.19
465.7  7583.22  1006.65  13.27
467.2  7742.35  1026.35  13.26
468.7  7912.00  1055.33  13.34
470.2  8015.91  1088.09  13.57
471.7  8177.13  1126.54  13.78
473.2  8446.52  1165.88  13.80
474.6  8688.33  1170.47  13.47
476.1  8747.12  1164.23  13.31
477.6  8779.39  1166.34  13.28
479.1  8829.54  1180.57  13.37
480.6  8916.06  1200.94  13.47
482.1  9046.91  1220.82  13.49
483.6  9204.08  1249.77  13.58
485.1  9394.00  1283.29  13.66
486.6  9626.34  1319.92  13.71
488.0  9867.00  1360.40  13.79
489.5  10130.90  1413.93  13.96
491.0  10387.73  1467.38  14.13
492.5  10649.88  1529.01  14.36
494.0  10928.34  1596.03  14.60
495.4  11158.95  1667.33  14.94
496.9  11406.10  1742.65  15.28
498.4  11649.48  1829.31  15.70
499.9  11878.23  1920.45  16.17
501.4  12101.58  2018.68  16.68
502.8  12308.24  2128.77  17.30
504.3  12497.40  2248.20  17.99
505.8  12681.02  2374.53  18.73
507.2  12808.72  2495.05  19.48
508.7  12896.48  2628.10  20.38
510.2  12964.78  2768.84  21.36
511.6  13008.39  2908.56  22.36
513.1  13093.74  3068.36  23.43
514.6  13195.49  3232.36  24.50
516.0  13281.41  3402.79  25.62
517.5  13429.99  3598.40  26.79
519.0  13603.01  3806.38  27.98
520.5  13772.72  4019.37  29.18
521.9  13993.28  4246.79  30.35
523.4  14243.35  4479.30  31.45
524.8  14493.24  4716.96  32.55
526.3  14778.04  4953.26  33.52
527.8  15074.01  5187.35  34.41
529.2  15339.71  5410.21  35.27
530.7  15629.94  5628.09  36.01
532.1  15903.48  5831.22  36.67
533.6  16214.37  6040.98  37.26
535.0  16534.98  6245.66  37.77
536.5  16856.03  6440.48  38.21
538.0  17178.24  6630.44  38.60
539.4  17501.02  6817.67  38.96
540.9  17879.62  7017.88  39.25
542.3  18237.67  7189.66  39.42
543.8  18504.51  7317.81  39.55
545.2  18600.74  7399.32  39.78
546.6  18637.00  7464.25  40.05
548.1  18690.38  7533.39  40.31
549.5  18745.60  7602.04  40.55
551.0  18790.92  7648.65  40.70
552.4  18868.34  7708.57  40.85
553.9  18922.09  7739.07  40.90
555.3  18999.63  7769.97  40.90
556.8  19143.87  7814.12  40.82
558.2  19276.31  7846.31  40.70
559.6  19441.66  7876.64  40.51
561.1  19660.88  7917.81  40.27
562.5  19883.82  7960.15  40.03
564.0  20177.05  8012.44  39.71
565.4  20444.07  8040.45  39.33
566.8  20774.24  8081.05  38.90
568.3  21077.79  8098.12  38.42
569.7  21403.31  8103.99  37.86
571.1  21706.83  8100.92  37.32
572.6  22010.94  8092.44  36.77
574.0  22299.75  8077.85  36.22
575.4  22570.31  8059.22  35.71
576.9  22820.49  8038.51  35.22
578.3  23040.88  8011.87  34.77
579.7  23243.15  7987.63  34.37
581.1  23410.31  7950.63  33.96
582.6  23592.46  7921.46  33.58
584.0  23735.52  7884.63  33.22
585.4  23971.18  7878.41  32.87
586.8  24286.87  7890.38  32.49
588.3  24642.54  7921.68  32.15
589.7  24935.04  7947.81  31.87
591.1  25126.37  7950.11  31.64
592.5  25213.30  7932.33  31.46
594.0  25248.06  7905.79  31.31
595.4  25246.58  7870.16  31.17
596.8  25248.80  7842.12  31.06
598.2  25256.70  7815.79  30.95
599.6  25254.00  7783.20  30.82
601.0  25321.45  7766.68  30.67
602.4  25392.58  7740.69  30.48
603.9  25508.50  7729.13  30.30
605.3  25652.08  7716.06  30.08
606.7  25770.60  7686.30  29.83
608.1  26003.60  7678.29  29.53
609.5  26249.20  7674.29  29.24
610.9  26543.12  7670.80  28.90
612.3  26820.62  7657.86  28.55
613.7  27191.20  7669.46  28.21
615.1  27470.34  7650.45  27.85
616.5  27748.85  7644.08  27.55
617.9  28163.94  7673.84  27.25
619.3  28559.37  7692.50  26.94
620.7  29021.55  7727.78  26.63
622.1  29524.34  7841.18  26.56
623.5  30070.32  8026.83  26.69
624.9  30686.25  8256.50  26.91
626.3  31117.56  8441.17  27.13
627.7  30854.43  8424.61  27.30
629.1  30617.27  8387.98  27.40
630.5  30534.25  8356.96  27.37
631.9  30583.88  8341.12  27.27
633.3  30636.73  8282.47  27.03
634.7  30802.72  8225.42  26.70
636.1  30887.16  8158.79  26.41
637.5  30991.21  8059.84  26.01
638.9  31137.59  7914.73  25.42
640.2  31275.86  7741.66  24.75
641.6  31334.94  7523.10  24.01
643.0  31307.82  7289.14  23.28
644.4  31297.86  7053.28  22.54
645.8  31223.60  6774.12  21.70
647.2  31327.01  6552.91  20.92
648.5  31378.61  6321.87  20.15
649.9  31215.99  5954.29  19.07
651.3  31061.55  5593.85  18.01
652.7  30880.50  5400.05  17.49
654.1  30705.72  5393.14  17.56
655.5  30448.41  5416.63  17.79
656.8  30219.54  5395.86  17.86
658.2  30347.48  5387.54  17.75
659.6  30667.01  5365.71  17.50
660.9  30915.41  5316.14  17.20
662.3  31175.28  5258.14  16.87
663.7  31418.10  5190.50  16.52
665.0  31622.76  5114.97  16.17
666.4  31821.65  5044.80  15.85
667.8  32088.83  5005.30  15.60
669.1  32304.87  4968.67  15.38
670.5  32567.66  4945.23  15.18
671.9  32723.64  4924.22  15.05
673.2  32957.22  4944.13  15.00
674.6  33165.65  4977.21  15.01
676.0  33416.99  5028.23  15.05
677.3  33670.84  5109.01  15.17
678.7  33959.63  5232.81  15.41
680.0  34360.72  5411.06  15.75
681.4  34770.40  5640.58  16.22
682.8  35166.95  5922.21  16.84
684.1  35575.02  6285.24  17.67
685.5  35948.61  6754.23  18.79
686.8  36307.14  7320.96  20.16
688.2  36654.12  7999.66  21.82
689.5  36792.82  8762.00  23.81
690.9  36894.22  9619.13  26.07
692.2  37000.50  10559.13  28.54
693.6  37086.31  11570.98  31.20
694.9  37102.94  12635.95  34.06
696.2  37172.03  13756.88  37.01
697.6  37238.58  14918.25  40.06
698.9  37321.68  16075.84  43.07
700.3  37412.04  17244.20  46.09
701.6  37521.51  18400.87  49.04
703.0  37648.39  19539.65  51.90
704.3  37727.46  20618.84  54.65
705.6  37779.39  21634.13  57.26
707.0  37853.11  22611.38  59.73
708.3  37804.36  23498.28  62.16
709.6  37779.31  24327.87  64.39
711.0  37700.05  25084.24  66.54
712.3  37603.29  25779.51  68.56
713.6  37599.66  26517.33  70.53
714.9  37564.50  27169.09  72.33
716.3  37606.65  27862.42  74.09
717.6  37655.10  28529.78  75.77
718.9  37643.31  29096.25  77.29
720.2  37519.65  29570.24  78.81
721.6  37437.79  30010.63  80.16
722.9  37295.06  30354.75  81.39
724.2  37099.21  30588.56  82.45
725.5  36957.59  30848.74  83.47
726.8  36833.83  31086.69  84.40
728.1  36764.75  31353.91  85.28
729.5  36694.32  31572.15  86.04
730.8  36660.60  31758.65  86.63
732.1  36590.42  31904.38  87.19
733.4  36549.03  32051.80  87.70
734.7  36509.02  32170.22  88.12
736.0  36510.50  32325.56  88.54
737.3  36452.29  32411.94  88.92
738.6  36538.42  32633.90  89.31
739.9  36706.85  32899.21  89.63
741.2  36841.35  33138.11  89.95
742.5  37078.82  33452.29  90.22
743.8  37494.19  33914.65  90.45
745.1  38118.44  34563.90  90.68
746.4  38876.11  35339.17  90.90
747.7  39639.96  36181.30  91.27
749.0  40400.48  37028.84  91.65
750.3  40850.46  37575.28  91.98
751.6  40764.46  37622.37  92.29
752.9  40356.61  37293.19  92.41
754.2  39863.99  36889.46  92.54
755.4  39350.05  36430.22  92.58
756.7  39155.03  36286.80  92.67
758.0  39142.09  36313.50  92.77
759.3  39351.46  36546.46  92.87
760.6  39645.76  36833.21  92.91
761.9  39928.94  37130.47  92.99
763.1  40078.15  37317.44  93.11
764.4  40287.45  37554.65  93.22
765.7  40433.25  37729.25  93.31
767.0  40515.07  37875.27  93.48
768.2  40595.52  37992.64  93.59
769.5  40644.33  38077.22  93.68
770.8  40787.04  38258.17  93.80
772.0  40799.41  38301.36  93.88
773.3  40833.29  38389.21  94.01
774.6  40907.98  38519.02  94.16
775.8  40955.53  38649.49  94.37
777.1  40964.33  38711.35  94.50
778.4  40867.87  38686.60  94.66
779.6  40816.98  38666.62  94.73
780.9  40688.00  38590.67  94.85
782.1  40484.72  38454.58  94.99
783.4  40464.32  38486.93  95.11
784.6  40463.12  38532.13  95.23
785.9  40670.74  38782.67  95.36
787.1  41171.80  39300.56  95.46
788.4  41528.97  39851.16  95.96
789.6  41482.13  40039.14  96.52
790.9  41134.16  39782.71  96.71
792.1  40655.28  39355.57  96.80
793.4  40180.32  38953.44  96.95
794.6  39846.60  38724.05  97.18
795.8  39587.54  38530.76  97.33
797.1  39290.10  38295.04  97.47
798.3  39054.26  38130.13  97.63
799.5  38943.25  38065.88  97.75
800.8  38778.22  37986.15  97.96
802.0  38618.88  37899.45  98.14
803.2  38465.20  37795.49  98.26
804.5  38332.71  37747.05  98.47
805.7  38219.65  37666.39  98.55
806.9  38073.35  37586.91  98.72
808.1  37984.05  37528.03  98.80
809.4  37906.28  37488.07  98.90
810.6  37824.15  37425.27  98.95
811.8  37796.29  37405.34  98.97
813.0  37827.58  37432.10  98.95
814.2  37840.50  37455.69  98.98
815.4  37955.24  37599.23  99.06
816.6  38027.91  37677.34  99.08
817.9  38102.35  37767.83  99.12
819.1  38072.96  37726.70  99.09
820.3  37949.69  37617.91  99.13
821.5  37894.61  37544.13  99.08
822.7  37866.54  37474.69  98.97
823.9  37906.28  37459.97  98.82
825.1  37943.15  37441.34  98.68
826.3  38020.73  37432.47  98.45
827.5  38108.05  37419.10  98.19
828.7  38176.32  37427.72  98.04
829.9  38262.68  37396.19  97.74
831.0  38386.63  37418.62  97.48
832.2  38533.16  37441.48  97.17
833.4  38634.36  37465.81  96.98
834.6  38746.88  37501.57  96.79
835.8  38872.58  37540.13  96.57
837.0  39026.76  37590.15  96.32
838.1  39200.00  37714.60  96.21
839.3  39334.99  37809.87  96.12
840.5  39499.16  37906.77  95.97
841.7  39675.29  38012.78  95.81
842.9  39834.34  38124.91  95.71
844.0  40002.80  38225.18  95.56
845.2  40188.33  38375.37  95.49
846.4  40315.24  38482.32  95.45
847.5  40575.08  38693.96  95.36
848.7  40794.29  38913.36  95.39
849.9  41043.27  39126.46  95.33
851.0  41176.72  39248.50  95.32
852.2  41283.01  39371.71  95.37
853.3  41336.03  39390.85  95.29
854.5  41385.60  39411.72  95.23
855.6  41408.01  39408.06  95.17
856.8  41491.09  39432.85  95.04
857.9  41535.42  39462.64  95.01
859.1  41657.80  39573.57  95.00
860.2  41711.76  39555.63  94.83
861.4  41789.90  39610.10  94.78
862.5  41857.52  39654.43  94.74
863.7  41978.22  39714.56  94.61
864.8  42001.40  39713.80  94.55
865.9  42003.19  39667.43  94.44
867.1  42077.89  39722.35  94.40
868.2  42118.25  39713.84  94.29
869.3  42153.63  39723.18  94.23
870.5  42092.46  39636.77  94.17
871.6  42122.53  39606.60  94.03
872.7  42223.14  39635.92  93.87
873.9  42262.83  39638.23  93.79
875.0  42247.20  39591.57  93.71
876.1  42225.11  39526.67  93.61
877.2  42279.84  39504.52  93.44
878.3  42302.12  39479.85  93.33
879.4  42284.06  39444.29  93.28
880.5  42343.92  39443.16  93.15
881.7  42326.05  39395.31  93.08
882.8  42351.34  39438.03  93.12
883.9  42430.09  39443.78  92.96
885.0  42357.32  39387.98  92.99
886.1  42357.47  39337.68  92.87
887.2  42241.92  39176.75  92.74
888.3  42147.85  39081.41  92.72
889.4  42045.32  38926.19  92.58
890.5  41945.29  38826.56  92.56
891.6  41864.40  38714.04  92.47
892.7  41844.69  38629.81  92.32
893.8  41881.85  38594.59  92.15
894.9  41879.31  38513.38  91.96
896.0  41812.69  38455.26  91.97
897.0  41850.92  38419.51  91.80
898.1  41821.61  38371.31  91.75
899.2  41852.54  38325.13  91.57
900.3  41747.94  38190.70  91.48
901.4  41622.41  38061.96  91.45
902.4  41658.53  38050.46  91.34
903.5  41604.82  37914.32  91.13
904.6  41550.72  37878.11  91.16
905.7  41565.54  37799.50  90.94
906.7  41536.49  37704.97  90.78
907.8  41558.34  37677.88  90.66
908.9  41493.73  37545.18  90.48
909.9  41451.58  37448.95  90.34
911.0  41358.23  37342.06  90.29
912.1  41297.17  37209.09  90.10
913.1  41189.72  37056.59  89.97
914.2  41099.85  36850.88  89.66
915.2  41068.89  36754.88  89.50
916.3  41034.15  36669.10  89.36
917.3  40975.74  36540.74  89.18
918.4  40862.80  36341.71  88.94
919.4  40836.29  36214.67  88.68
920.5  40782.84  36086.13  88.48
921.5  40833.45  35974.81  88.10
922.6  40729.18  35763.11  87.81
923.6  40739.49  35643.51  87.49
924.7  40774.75  35489.33  87.04
925.7  40746.72  35287.76  86.60
926.7  40808.40  35173.48  86.19
927.8  40839.01  35063.19  85.86
928.8  40966.59  34976.21  85.38
929.9  41048.46  34877.81  84.97
930.9  41217.18  34834.79  84.52
931.9  41378.61  34745.50  83.97
932.9  41679.25  34808.32  83.51
934.0  41702.58  34640.84  83.07
935.0  41757.18  34428.47  82.45
936.0  41670.71  34210.34  82.10
937.0  41632.50  33928.51  81.50
938.1  41580.55  33657.03  80.94
939.1  41508.45  33426.68  80.53
940.1  41591.64  33249.44  79.94
941.1  41779.29  33204.45  79.48
942.1  41991.60  33139.21  78.92
943.1  42156.63  33046.37  78.39
944.1  42391.18  32945.20  77.72
945.2  42445.20  32769.17  77.20
946.2  42493.04  32594.27  76.70
947.2  42572.63  32414.31  76.14
948.2  42750.54  32289.53  75.53
949.2  42846.38  32051.91  74.81
950.2  42880.60  31797.49  74.15
951.2  42968.52  31592.12  73.52
952.2  43001.40  31415.72  73.06
953.2  43164.71  31287.88  72.48
954.2  43310.48  31104.75  71.82
955.2  43368.34  30878.62  71.20
956.2  43301.73  30657.71  70.80
957.2  43392.87  30543.71  70.39
958.2  43492.10  30397.18  69.89
959.2  43506.45  30291.90  69.63
960.1  43588.22  30196.32  69.28
961.1  43692.83  30138.19  68.98
962.1  43658.44  30017.03  68.75
963.1  43782.00  29990.67  68.50
964.1  43817.42  29974.27  68.41
965.1  43908.74  30036.60  68.41
966.1  44007.38  29980.89  68.13
967.0  44141.86  29947.14  67.84
968.0  44131.86  29944.39  67.85
969.0  44255.20  30034.90  67.87
970.0  44255.36  30022.28  67.84
971.0  44316.83  30042.02  67.79
971.9  44400.90  30009.97  67.59
972.9  44577.14  30144.28  67.62
973.9  44494.78  30198.08  67.87
974.9  44573.29  30290.09  67.96
975.8  44702.44  30430.77  68.07
976.8  44666.28  30502.46  68.29
977.8  44950.93  30583.20  68.04
978.8  44877.90  30662.03  68.32
979.7  45104.10  30845.58  68.39
981.4  47578.80  29602.03  62.22
985.3  47203.20  30026.48  63.61
989.3  47137.31  30610.69  64.94
993.3  47133.16  31169.05  66.13
997.2  47029.21  31591.99  67.18
1001.2  46955.35  31967.30  68.08
1005.2  46914.32  32361.30  68.98
1009.1  47038.13  32858.63  69.86
1013.1  47236.75  33452.10  70.82
1017.1  47375.30  34077.07  71.93
1021.0  47429.61  34632.57  73.02
1025.0  47461.87  35171.60  74.10
1029.0  47354.18  35594.60  75.17
1032.9  47271.77  36016.59  76.19
1036.9  47308.70  36512.38  77.18
1040.9  47476.08  37068.38  78.08
1044.8  47747.63  37648.10  78.85
1048.8  47970.59  38174.42  79.58
1052.7  48104.60  38627.41  80.30
1056.7  48183.46  38931.82  80.80
1060.7  48250.82  39163.48  81.17
1064.6  48272.17  39340.92  81.50
1068.6  48190.54  39370.70  81.70
1072.5  48116.11  39327.29  81.73
1076.5  48076.67  39253.74  81.65
1080.4  48048.88  39134.44  81.45
1084.4  48150.59  39047.66  81.09
1088.3  48279.53  38918.96  80.61
1092.3  48252.92  38622.68  80.04
1096.2  48221.83  38283.98  79.39
1100.2  48245.69  37963.87  78.69
1104.1  48124.97  37510.59  77.94
1108.1  48059.38  37097.48  77.19
1112.0  47955.87  36643.08  76.41
1116.0  47754.46  36082.82  75.56
1119.9  47569.76  35462.66  74.55
1123.9  47623.80  34862.30  73.20
1127.8  47592.96  33954.56  71.34
1131.8  47556.42  32779.97  68.93
1135.7  47568.82  31441.69  66.10
1139.6  47554.30  29985.55  63.06
1143.6  47510.71  28570.23  60.13
1147.5  47481.98  27360.59  57.62
1151.4  47337.52  26330.78  55.62
1155.4  47322.86  25667.63  54.24
1159.3  47329.81  25242.33  53.33
1163.2  47159.49  24867.71  52.73
1167.2  47113.86  24669.08  52.36
1171.1  47117.13  24536.16  52.07
1175.0  47022.16  24379.67  51.85
1179.0  46962.63  24253.03  51.64
1182.9  47045.30  24185.97  51.41
1186.8  47019.62  24073.22  51.20
1190.7  46784.64  23876.18  51.03
1194.7  46508.35  23687.65  50.93
1198.6  46264.68  23550.45  50.90
1202.5  46100.54  23463.02  50.90
1206.4  45962.62  23412.78  50.94
1210.3  45829.98  23406.32  51.07
1214.2  45707.13  23431.18  51.26
1218.2  45554.16  23456.23  51.49
1222.1  45384.95  23504.68  51.79
1226.0  45257.55  23573.46  52.09
1229.9  45156.00  23640.12  52.35
1233.8  45033.17  23694.36  52.62
1237.7  44950.68  23762.20  52.86
1241.6  44841.64  23803.54  53.08
1245.5  44683.61  23801.45  53.27
1249.4  44538.65  23798.27  53.43
1253.3  44401.40  23788.62  53.58
1257.2  44324.52  23782.38  53.66
1261.1  44209.48  23736.24  53.69
1265.0  44086.55  23660.77  53.67
1268.9  43910.05  23540.15  53.61
1272.8  43969.80  23533.40  53.52
1276.7  44155.69  23553.50  53.34
1280.6  44249.88  23481.45  53.07
1284.5  44188.89  23297.28  52.72
1288.4  44167.03  23105.44  52.31
1292.3  44060.50  22836.00  51.83
1296.2  43934.23  22509.01  51.23
1300.1  43787.98  22139.03  50.56
1303.9  43564.57  21698.15  49.81
1307.8  43339.22  21216.69  48.95
1311.7  43109.06  20693.45  48.00
1315.6  42877.90  20137.40  46.96
1319.5  42633.84  19548.15  45.85
1323.3  42417.44  18959.68  44.70
1327.2  42218.70  18384.45  43.55
1331.1  42002.86  17801.61  42.38
1335.0  41739.72  17213.29  41.24
1338.8  41543.11  16681.93  40.16
1342.7  41389.31  16189.76  39.12
1346.5  41042.00  15654.54  38.14
1350.4  40741.74  15195.47  37.30
1354.3  40332.24  14725.94  36.51
1358.1  39895.31  14234.48  35.68
1362.0  39644.33  13799.97  34.81
1365.8  39567.12  13391.52  33.85
1369.7  39683.68  13002.11  32.76
1373.5  39615.26  12506.23  31.57
1377.4  39354.79  11873.00  30.17
1381.2  39167.92  11143.08  28.45
1385.1  39160.09  10374.14  26.49
1389.0  39060.88  9580.84  24.53
1392.8  38834.72  8818.27  22.71
1396.6  38680.88  8156.01  21.09
1400.5  38476.57  7567.35  19.67
1404.3  38299.58  7084.70  18.50
1408.2  38263.03  6721.88  17.57
1412.0  38218.70  6428.98  16.82
1415.8  38249.29  6216.54  16.25
1419.6  38208.11  6050.84  15.84
1423.5  38172.20  5922.83  15.52
1427.3  38125.77  5834.87  15.30
1431.1  38099.78  5776.85  15.16
1434.9  38010.73  5706.29  15.01
1438.8  37949.80  5655.55  14.90
1442.6  37913.52  5623.83  14.83
1446.4  37795.09  5594.24  14.80
1450.2  37700.99  5590.27  14.83
1454.0  37583.52  5579.16  14.84
1457.8  37547.69  5587.79  14.88
1461.6  37527.24  5611.29  14.95
1465.4  37404.28  5629.50  15.05
1469.2  37216.73  5654.90  15.19
1473.0  37080.95  5701.61  15.38
1476.8  37019.78  5782.33  15.62
1480.7  36949.43  5876.02  15.90
1484.4  36826.56  5972.08  16.22
1488.2  36723.96  6095.20  16.60
1492.0  36584.11  6224.70  17.01
1495.8  36452.33  6341.94  17.40
1499.6  36350.05  6438.93  17.71
1503.4  36216.75  6523.85  18.01
1507.2  36087.28  6613.49  18.33
1510.9  35929.91  6695.51  18.63
1514.7  35749.31  6758.34  18.90
1518.5  35615.65  6808.05  19.12
1522.3  35466.30  6858.26  19.34
1526.0  35355.47  6939.82  19.63
1529.8  35294.61  7037.79  19.94
1533.6  35159.29  7119.01  20.25
1537.3  35020.99  7199.00  20.56
1541.1  34889.16  7265.87  20.83
1544.8  34754.40  7277.60  20.94
1548.6  34607.98  7236.84  20.91
1552.4  34514.76  7279.20  21.09
1556.1  34455.77  7475.02  21.69
1559.9  34373.05  7662.40  22.29
1563.6  34243.93  7754.70  22.65
1567.3  34122.03  7834.42  22.96
1571.1  33904.82  7904.28  23.31
1574.8  33749.79  7994.86  23.69
1578.6  33637.37  8073.03  24.00
1582.3  33496.17  8115.43  24.23
1586.0  33359.51  8148.80  24.43
1589.8  33217.24  8190.03  24.66
1593.5  33051.52  8233.26  24.91
1597.2  32917.71  8273.85  25.13
1600.9  32767.31  8302.37  25.34
1604.7  32613.52  8332.00  25.55
1608.4  32493.03  8361.65  25.73
1612.1  32320.35  8377.66  25.92
1615.8  32161.00  8401.75  26.12
1619.5  32072.28  8443.03  26.33
1623.2  31915.49  8459.46  26.51
1626.9  31725.78  8459.24  26.66
1630.6  31537.44  8465.16  26.84
1634.3  31397.73  8486.37  27.03
1638.0  31241.74  8496.36  27.20
1641.7  31050.65  8494.27  27.36
1645.4  30870.63  8488.33  27.50
1649.1  30683.95  8477.15  27.63
1652.8  30504.58  8465.60  27.75
1656.4  30322.32  8442.15  27.84
1660.1  30158.02  8421.32  27.92
1663.8  29966.42  8376.32  27.95
1667.5  29809.99  8340.30  27.98
1671.1  29676.54  8302.92  27.98
1674.8  29472.79  8236.27  27.95
1678.5  29413.48  8199.75  27.88
1682.1  29419.35  8170.09  27.77
1685.8  29417.21  8129.62  27.64
1689.5  29310.65  8059.41  27.50
1693.1  29167.59  7978.21  27.35
1696.8  29020.13  7889.75  27.19
1700.4  28874.60  7787.55  26.97
1704.0  28754.23  7692.67  26.75
1707.7  28493.62  7562.00  26.54
1711.3  28200.13  7414.10  26.29
1715.0  27991.44  7290.16  26.04
1718.6  27822.35  7175.22  25.79
1722.2  27677.55  7064.27  25.52
1725.9  27527.50  6953.46  25.26
1729.5  27386.37  6858.61  25.04
1733.1  27262.24  6793.17  24.92
1736.7  27144.69  6741.99  24.84
1740.3  26982.07  6670.87  24.72
1744.0  26899.89  6604.97  24.55
1747.5  26760.07  6513.88  24.34
1751.2  26551.35  6400.93  24.11
1754.8  26397.18  6302.76  23.88
1758.4  26262.14  6219.06  23.68
1762.0  26085.49  6129.38  23.50
1765.5  25956.49  6056.91  23.33
1769.1  25915.20  6017.60  23.22
1772.7  25841.75  5975.84  23.12
1776.3  25724.16  5912.98  22.99
1779.9  25608.69  5850.47  22.85
1783.5  25553.92  5817.25  22.76
1787.0  25434.82  5771.86  22.69
1790.6  25293.30  5722.57  22.62
1794.2  25193.03  5689.67  22.58
1797.8  25095.48  5664.87  22.57
1801.3  25012.46  5648.90  22.58
1804.9  24871.88  5615.75  22.58
1808.4  24792.34  5594.22  22.56
1812.0  24660.35  5561.23  22.55
1815.5  24519.60  5526.64  22.54
1819.1  24324.68  5477.48  22.52
1822.6  24164.48  5436.26  22.50
1826.2  24042.90  5395.39  22.44
1829.7  23859.90  5336.55  22.37
1833.2  23612.46  5267.45  22.31
1836.8  23400.20  5197.92  22.21
1840.3  23257.80  5133.36  22.07
1843.8  23131.92  5058.11  21.87
1847.3  23013.03  4972.59  21.61
1850.8  22865.47  4873.34  21.31
1854.3  22692.74  4762.11  20.99
1857.8  22594.00  4664.40  20.64
1861.3  22615.25  4569.40  20.20
1864.8  22605.64  4451.51  19.69
1868.3  22468.36  4252.76  18.93
1871.8  22341.12  4032.00  18.05
1875.3  22323.21  3815.94  17.09
1878.8  22320.32  3611.78  16.18
1882.3  22237.89  3402.13  15.30
1885.8  22045.10  3207.05  14.55
1889.3  21861.76  3038.91  13.90
1892.7  21710.01  2892.31  13.32
1896.2  21503.16  2784.77  12.95
1899.7  21232.37  2745.06  12.93
1901.7  20074.51  1489.18  7.42
1904.5  20223.67  1481.20  7.32
1907.2  20168.50  1474.08  7.31
1910.0  20030.00  1446.88  7.22
1912.7  20048.69  1458.55  7.28
1915.5  19979.54  1462.68  7.32
1918.2  19877.64  1448.03  7.28
1921.0  19705.09  1432.64  7.27
1923.7  19733.20  1448.50  7.34
1926.5  19715.86  1448.13  7.35
1929.2  19701.76  1450.48  7.36
1932.0  19674.16  1459.92  7.42
1934.7  19635.47  1446.60  7.37
1937.4  19518.79  1436.07  7.36
1940.2  19475.71  1451.64  7.45
1942.9  19573.26  1466.68  7.49
1945.6  19572.62  1476.78  7.55
1948.3  19494.00  1484.11  7.61
1951.1  19465.67  1479.92  7.60
1953.8  19476.00  1511.00  7.76
1956.5  19368.67  1519.47  7.84
1959.2  19423.04  1523.90  7.85
1961.9  19438.54  1537.68  7.91
1964.6  19331.55  1541.05  7.97
1967.3  19375.30  1571.35  8.11
1970.0  19228.16  1572.75  8.18
1972.8  19159.08  1579.67  8.25
1975.5  19219.42  1615.52  8.41
1978.2  19120.16  1620.60  8.48
1980.9  19002.89  1615.89  8.50
1983.5  18950.70  1633.51  8.62
1986.2  18944.10  1654.82  8.74
1988.9  18909.18  1668.40  8.82
1991.6  18787.78  1671.38  8.90
1994.3  18678.85  1678.12  8.98
1997.0  18669.58  1705.97  9.14
1999.7  18631.37  1721.09  9.24
2002.3  18617.79  1730.80  9.30
2005.0  18540.12  1756.69  9.48
2007.7  18469.93  1770.65  9.59
2010.4  18400.48  1767.25  9.60
2013.0  18316.11  1787.61  9.76
2015.7  18226.45  1792.14  9.83
2018.4  18129.14  1789.93  9.87
2021.0  18062.50  1808.61  10.01
2023.7  17946.51  1818.49  10.13
2026.4  17902.73  1822.38  10.18
2029.0  17806.29  1828.52  10.27
2031.7  17677.40  1839.28  10.40
2034.3  17722.47  1858.06  10.48
2037.0  17610.64  1866.35  10.60
2039.6  17527.07  1868.05  10.66
2042.3  17481.88  1873.16  10.71
2044.9  17393.81  1878.42  10.80
2047.5  17348.93  1908.34  11.00
2050.2  17253.60  1908.67  11.06
2052.8  17214.40  1908.67  11.09
2055.4  17090.17  1920.07  11.23
2058.1  16973.60  1915.20  11.28
2060.7  16918.14  1926.69  11.39
2063.3  16842.61  1923.73  11.42
2065.9  16794.67  1929.04  11.49
2068.6  16710.92  1937.42  11.59
2071.2  16664.67  1939.98  11.64
2073.8  16591.32  1939.25  11.69
2076.4  16536.88  1952.50  11.81
2079.0  16525.61  1976.37  11.96
2081.6  16519.89  1983.40  12.01
2084.2  16487.00  1992.10  12.08
2086.8  16353.42  1987.38  12.15
2089.4  16268.28  1993.23  12.25
2092.1  16209.50  2000.33  12.34
2094.7  16113.80  2015.17  12.51
2097.2  16087.67  2022.06  12.57
2099.8  16089.36  2035.37  12.65
2102.4  15953.94  2045.30  12.82
2105.0  15826.05  2027.30  12.81
2107.6  15774.07  2024.22  12.83
2110.2  15742.83  2049.79  13.02
2112.8  15734.02  2065.42  13.13
2115.3  15735.22  2064.93  13.12
2117.9  15738.64  2079.53  13.21
2120.5  15682.70  2093.94  13.35
2123.1  15604.88  2090.40  13.40
2125.6  15567.02  2088.88  13.42
2128.2  15487.92  2100.37  13.56
2130.8  15394.28  2097.23  13.62
2133.3  15347.20  2096.36  13.66
2135.9  15264.31  2101.33  13.77
2138.4  15119.35  2103.92  13.92
2141.0  15032.51  2091.12  13.91
2143.6  14998.41  2088.33  13.92
2146.1  14847.40  2088.18  14.06
2148.7  14686.27  2073.29  14.12
2151.2  14704.80  2079.73  14.14
2153.8  14713.72  2077.99  14.12
2156.3  14589.47  2064.38  14.15
2158.8  14533.35  2075.21  14.28
2161.4  14517.59  2087.42  14.38
2163.9  14426.20  2072.68  14.37
2166.4  14354.62  2061.78  14.36
2169.0  14310.27  2069.66  14.46
2171.5  14227.48  2057.84  14.46
2174.0  14143.15  2050.77  14.50
2176.5  14124.76  2058.12  14.57
2179.1  14082.55  2058.97  14.62
2181.6  13967.33  2037.92  14.59
2184.1  13937.00  2039.99  14.64
2186.6  13993.83  2053.52  14.67
2189.1  13896.09  2030.86  14.61
2191.6  13840.87  2025.33  14.63
2194.1  13877.92  2026.22  14.60
2196.6  13844.81  2022.15  14.61
2199.2  13897.52  2030.21  14.61
2201.7  13871.80  2033.20  14.66
2204.1  13802.39  2029.19  14.70
2206.6  13786.08  2026.63  14.70
2209.1  13743.34  2022.46  14.72
2211.6  13738.26  2021.34  14.71
2214.1  13693.60  2012.35  14.70
2216.6  13643.61  2014.38  14.76
2219.1  13655.01  2014.39  14.75
2221.6  13597.41  1994.69  14.67
2224.0  13563.60  1983.74  14.63
2226.5  13534.39  1968.46  14.54
2229.0  13551.73  1938.86  14.31
2231.5  13416.49  1916.28  14.28
2233.9  13376.81  1916.47  14.33
2236.4  13409.64  1914.56  14.28
2238.9  13341.63  1897.46  14.22
2241.3  13300.17  1883.74  14.16
2243.8  13261.31  1872.08  14.12
2246.2  13153.53  1833.66  13.94
2248.7  13089.53  1813.92  13.86
2251.2  13067.33  1811.49  13.86
2253.6  13017.60  1785.60  13.72
2256.1  12979.20  1770.24  13.64
2258.5  12980.99  1782.53  13.73
2260.9  12912.45  1744.93  13.51
2263.4  12850.74  1704.22  13.26
2265.8  12840.17  1706.64  13.29
2268.3  12768.77  1685.57  13.20
2270.7  12812.36  1673.51  13.06
2273.1  12778.22  1672.06  13.09
2275.6  12710.40  1646.08  12.95
2278.0  12729.12  1628.29  12.79
2280.4  12680.26  1613.74  12.73
2282.8  12544.20  1599.00  12.75
2285.3  12570.98  1582.55  12.59
2287.7  12679.54  1563.30  12.33
2290.1  12579.51  1545.75  12.29
2292.5  12520.09  1527.81  12.20
2294.9  12538.64  1520.07  12.12
2297.3  12458.25  1504.22  12.07
2299.7  12334.59  1463.52  11.87
2302.1  12311.40  1443.01  11.72
2304.5  12214.72  1437.33  11.77
2306.9  12089.28  1408.59  11.65
2309.3  11994.02  1380.56  11.51
2311.7  11939.85  1364.60  11.43
2314.1  11791.37  1339.03  11.36
2316.5  11721.50  1338.29  11.42
2318.9  11765.88  1359.88  11.56
2321.3  11730.50  1368.10  11.66
2323.7  11744.39  1381.69  11.76
2326.1  11719.24  1364.83  11.65
2328.4  11761.55  1360.18  11.56
2330.8  11807.83  1368.79  11.59
2333.2  11712.54  1349.44  11.52
2335.6  11662.03  1325.77  11.37
2337.9  11681.16  1314.60  11.25
2340.3  11629.38  1305.68  11.23
2342.7  11548.22  1285.02  11.13
2345.0  11508.47  1272.59  11.06
2347.4  11492.00  1265.08  11.01
2349.7  11315.65  1223.12  10.81
2352.1  11286.89  1222.17  10.83
2354.4  11296.02  1227.89  10.87
2356.8  11214.70  1208.67  10.78
2359.2  11154.00  1210.44  10.85
2361.5  11109.05  1207.19  10.87
2363.8  11141.66  1187.21  10.66
2366.2  11165.73  1171.00  10.49
2368.5  11089.40  1173.32  10.58
2370.9  11067.03  1161.58  10.50
2373.2  11030.32  1155.64  10.48
2375.5  10914.30  1144.83  10.49
2377.9  10876.18  1130.47  10.39
2380.2  10876.88  1145.42  10.53
2382.5  10821.23  1139.56  10.53
2384.8  10769.44  1110.51  10.31
2387.2  10736.28  1101.76  10.26
2389.5  10704.02  1089.13  10.17
2391.8  10661.73  1075.84  10.09
2394.1  10613.91  1070.03  10.08
2396.4  10610.47  1074.11  10.12
2398.7  10654.34  1084.76  10.18
2401.0  10513.07  1073.07  10.21
2403.3  10428.12  1029.20  9.87
2405.6  10456.51  1014.66  9.70
2407.9  10375.71  1027.05  9.90
2410.2  10317.44  1016.04  9.85
2412.5  10224.31  1007.86  9.86
2414.8  10187.84  1018.44  10.00
2417.1  10204.62  997.93  9.78
2419.4  10195.97  976.01  9.57
2421.7  10103.31  983.00  9.73
2424.0  10048.90  982.70  9.78
2426.2  10074.05  963.00  9.56
2428.5  10032.46  941.05  9.38
2430.8  10006.20  957.38  9.57
2433.1  9945.94  945.92  9.51
2435.4  9886.37  934.37  9.45
2437.6  9830.42  923.18  9.39
2439.9  9708.34  896.53  9.23
2442.2  9709.99  915.82  9.43
2444.4  9752.18  892.13  9.15
2446.7  9688.56  862.37  8.90
2448.9  9658.24  870.48  9.01
2451.2  9631.36  872.15  9.06
2453.4  9564.32  869.85  9.09
2455.7  9566.46  871.70  9.11
2457.9  9468.86  862.84  9.11
2460.2  9395.46  840.50  8.95
2462.4  9422.40  832.00  8.83
2464.7  9348.95  820.08  8.77
2466.9  9251.22  826.04  8.93
2469.2  9249.34  821.01  8.88
2471.4  9151.61  789.99  8.63
2473.6  9078.42  785.55  8.65
2475.9  9042.40  772.16  8.54
2478.1  8956.32  778.81  8.70
2480.3  8952.70  777.39  8.68
2482.5  8971.16  743.43  8.29
2484.8  8832.66  774.28  8.77
2487.0  8762.09  777.70  8.88
2489.2  8850.00  731.22  8.26
2491.4  8753.22  748.01  8.55
2493.6  8669.20  736.81  8.50
2495.8  8662.66  710.01  8.20
2498.0  8674.13  691.77  7.98
2500.2  8694.60  704.89  8.11
2502.4  8942.16  734.08  8.21
2504.6  9089.52  716.77  7.89
2506.8  9176.65  724.13  7.89
