/*** Spectra Vista SIG Data ***/
name= RS2.sig
comm= Resampled spectral data SIG file reprocesed for matching/overlap;Averaged Ref/Tar of files: RD6S4,RD6S5,RD6S6
data=
346.0  350.35  40.13  11.45
356.0  548.37  45.91  8.37
366.0  733.51  49.71  6.78
376.0  1020.12  49.78  4.88
386.0  1277.04  45.10  3.53
396.0  1627.44  55.76  3.43
406.0  1981.59  47.02  2.37
416.0  2426.66  54.56  2.25
426.0  2760.20  53.96  1.95
436.0  3371.96  57.95  1.72
446.0  3932.55  67.62  1.72
456.0  4458.34  70.71  1.59
466.0  5321.78  83.15  1.56
476.0  6071.69  97.39  1.60
486.0  6545.75  101.85  1.56
496.0  7607.89  120.29  1.58
506.0  8454.78  144.07  1.70
516.0  8783.27  159.71  1.82
526.0  9763.90  191.44  1.96
536.0  11118.00  242.11  2.18
546.0  12245.42  299.54  2.45
556.0  12328.74  337.44  2.74
566.0  13155.91  408.85  3.11
576.0  14507.55  523.17  3.61
586.0  15570.89  659.05  4.23
596.0  16431.40  798.17  4.86
606.0  16712.83  931.89  5.58
616.0  17829.88  1154.27  6.47
626.0  19660.82  1469.37  7.47
636.0  19333.08  1663.81  8.61
646.0  19460.12  1881.56  9.67
656.0  19022.71  1978.98  10.40
666.0  20100.61  2132.07  10.61
676.0  21420.32  2547.66  11.89
686.0  23296.24  3382.42  14.52
696.0  23938.75  4021.48  16.80
706.0  24146.65  4525.87  18.74
716.0  23692.80  4880.40  20.60
726.0  22909.23  5135.68  22.42
736.0  22412.65  5405.15  24.12
746.0  23689.99  6171.31  26.05
756.0  24146.35  6714.35  27.81
766.0  25173.28  7490.24  29.75
776.0  25830.00  8169.69  31.63
786.0  26006.50  8714.59  33.51
796.0  25488.24  8940.49  35.08
806.0  24760.71  9093.75  36.73
816.0  24660.03  9416.82  38.19
826.0  24490.65  9570.72  39.08
836.0  24813.24  9806.20  39.52
846.0  25390.01  10265.56  40.43
856.0  25793.23  10616.26  41.16
866.0  25937.23  10869.12  41.91
876.0  25978.67  10966.14  42.21
886.0  26066.82  10955.84  42.03
896.0  25797.95  10744.40  41.65
906.0  25784.12  10580.96  41.04
916.0  25585.58  10235.85  40.01
926.0  25562.63  9586.94  37.50
936.0  26313.67  8855.32  33.65
946.0  26990.41  7933.85  29.40
956.0  27679.08  6905.48  24.95
966.0  28223.03  6530.73  23.14
976.0  28734.35  6489.63  22.58
986.0  29617.10  6278.66  21.20
996.0  29682.46  6606.17  22.26
1006.0  29574.85  6940.83  23.47
1016.0  29765.57  7452.50  25.04
1026.0  29729.52  7981.88  26.85
1036.0  29515.06  8513.08  28.84
1046.0  29711.45  9131.27  30.73
1056.0  29893.15  9615.47  32.17
1066.0  29897.52  9860.18  32.98
1076.0  29800.79  9822.53  32.96
1086.0  29886.99  9601.46  32.13
1096.0  29929.51  9165.63  30.62
1106.0  29866.48  8658.23  28.99
1116.0  29674.06  8060.85  27.16
1126.0  29628.74  7221.94  24.37
1136.0  29657.68  5944.65  20.04
1146.0  29635.14  4792.00  16.17
1156.0  29553.21  4217.03  14.27
1166.0  29503.66  4018.99  13.62
1176.0  29484.94  3915.69  13.28
1186.0  29538.64  3853.41  13.05
1196.0  29214.89  3757.02  12.86
1206.0  28979.48  3712.52  12.81
1216.0  28818.50  3716.86  12.90
1226.0  28656.56  3745.39  13.07
1236.0  28531.50  3760.64  13.18
1246.0  28361.18  3778.45  13.32
1256.0  28203.68  3775.17  13.39
1266.0  28029.85  3748.87  13.37
1276.0  28088.39  3715.48  13.23
1286.0  28124.94  3631.03  12.91
1296.0  27958.41  3479.36  12.44
1306.0  27627.28  3270.31  11.84
1316.0  27221.07  3025.02  11.11
1326.0  26818.19  2770.57  10.33
1336.0  26392.47  2542.11  9.63
1346.0  25960.75  2345.62  9.04
1356.0  25324.13  2150.91  8.49
1366.0  24931.33  1993.24  7.99
1376.0  24859.99  1828.91  7.36
1386.0  24632.06  1551.60  6.30
1396.0  24380.47  1260.09  5.17
1406.0  24113.09  1038.31  4.31
1416.0  24100.63  910.98  3.78
1426.0  24059.20  851.20  3.54
1436.0  23972.09  808.63  3.37
1446.0  23864.15  786.24  3.29
1456.0  23721.80  778.50  3.28
1466.0  23605.52  785.78  3.33
1476.0  23392.42  805.46  3.44
1486.0  23242.80  850.52  3.66
1496.0  23046.32  905.45  3.93
1506.0  22839.62  932.32  4.08
1516.0  22613.88  946.64  4.19
1526.0  22400.45  981.77  4.38
1536.0  22235.76  1013.02  4.56
1546.0  22015.88  1040.68  4.73
1556.0  21843.28  1067.45  4.89
1566.0  21667.65  1092.61  5.04
1576.0  21395.50  1115.75  5.21
1586.0  21183.04  1132.51  5.35
1596.0  20952.60  1136.38  5.42
1606.0  20718.70  1145.74  5.53
1616.0  20474.49  1145.58  5.60
1626.0  20247.31  1158.79  5.72
1636.0  19983.73  1149.07  5.75
1646.0  19698.46  1142.14  5.80
1656.0  19408.32  1120.09  5.77
1666.0  19124.83  1102.99  5.77
1676.0  18864.06  1079.30  5.72
1686.0  18855.84  1064.94  5.65
1696.0  18634.96  1037.31  5.57
1706.0  18370.29  1002.73  5.46
1716.0  17962.80  947.96  5.28
1726.0  17703.75  905.34  5.11
1736.0  17485.45  886.01  5.07
1746.0  17265.19  862.56  5.00
1756.0  16948.63  824.57  4.87
1766.0  16694.46  798.11  4.78
1776.0  16556.01  783.78  4.73
1786.0  16371.39  767.17  4.69
1796.0  16140.67  748.82  4.64
1806.0  15938.14  737.36  4.63
1816.0  15678.97  723.08  4.61
1826.0  15392.26  709.27  4.61
1836.0  15002.97  693.28  4.62
1846.0  14761.21  674.02  4.57
1856.0  14556.19  662.54  4.55
1866.0  14407.28  582.06  4.04
1876.0  14196.45  475.95  3.35
1886.0  14007.84  381.89  2.73
1896.0  13666.82  290.07  2.12
1906.0  12741.66  204.69  1.61
1916.0  12564.20  182.17  1.45
1926.0  12460.23  170.67  1.37
1936.0  12370.80  180.45  1.46
1946.0  12350.77  171.99  1.39
1956.0  12226.83  193.81  1.59
1966.0  12235.64  208.13  1.70
1976.0  12109.13  205.39  1.70
1986.0  11959.16  221.29  1.85
1996.0  11765.88  215.49  1.83
2006.0  11671.47  239.01  2.05
2016.0  11489.77  225.91  1.97
2026.0  11296.39  237.32  2.10
2036.0  11118.89  250.00  2.25
2046.0  10967.77  250.87  2.29
2056.0  10772.24  248.49  2.31
2066.0  10586.51  256.93  2.43
2076.0  10437.29  255.58  2.45
2086.0  10345.87  262.12  2.53
2096.0  10147.65  262.11  2.58
2106.0  9962.90  273.54  2.75
2116.0  9924.42  286.88  2.89
2126.0  9819.65  265.56  2.70
2136.0  9628.14  261.20  2.71
2146.0  9347.98  280.61  3.00
2156.0  9207.07  280.34  3.04
2166.0  9045.30  267.44  2.96
2176.0  8862.98  279.20  3.15
2186.0  8784.19  281.00  3.20
2196.0  8710.92  267.32  3.07
2206.0  8676.64  256.43  2.96
2216.0  8628.13  257.23  2.98
2226.0  8514.03  239.27  2.81
2236.0  8471.23  249.04  2.94
2246.0  8264.26  243.74  2.95
2256.0  8190.87  203.27  2.48
2266.0  8126.90  203.47  2.50
2276.0  8029.96  190.75  2.38
2286.0  7925.78  181.33  2.29
2296.0  7890.23  171.52  2.17
2306.0  7669.48  158.92  2.07
2316.0  7409.17  150.36  2.03
2326.0  7407.33  167.80  2.27
2336.0  7352.94  164.24  2.23
2346.0  7306.66  150.68  2.06
2356.0  7113.81  138.41  1.95
2366.0  7033.05  143.75  2.04
2376.0  6902.02  136.31  1.97
2386.0  6802.63  114.34  1.68
2396.0  6698.31  112.79  1.68
2406.0  6580.89  90.02  1.37
2416.0  6486.45  146.94  2.27
2426.0  6373.82  102.32  1.61
2436.0  6209.95  105.80  1.70
2446.0  6115.19  94.70  1.55
2456.0  6033.36  87.41  1.45
2466.0  5852.24  57.57  0.98
2476.0  5728.44  69.71  1.22
2486.0  5584.08  66.17  1.18
2496.0  5488.96  73.09  1.33
2506.0  5754.08  50.77  0.88
