/*** Spectra Vista SIG Data ***/
name= RS2.sig
comm= SIG file reprocesed for matching/overlap;Averaged Ref/Tar of files: RD4S4,RD4S5,RD4S6
data=
346.4  300.98  84.51  28.08
347.9  318.46  87.02  27.33
349.5  343.20  84.87  24.73
351.1  374.40  83.62  22.33
352.6  409.54  88.97  21.72
354.2  435.24  95.56  21.96
355.7  456.30  97.88  21.45
357.3  495.85  102.64  20.70
358.8  506.78  96.00  18.94
360.4  548.73  101.77  18.55
361.9  565.91  108.19  19.12
363.5  593.82  95.57  16.09
365.1  620.68  104.49  16.83
366.6  647.34  102.65  15.86
368.2  683.25  95.80  14.02
369.7  726.46  106.22  14.62
371.3  772.09  105.80  13.70
372.8  813.40  106.68  13.12
374.4  856.07  107.69  12.58
375.9  883.77  106.80  12.08
377.4  909.07  104.95  11.54
379.0  945.20  107.36  11.36
380.5  966.34  105.87  10.96
382.1  1004.70  105.20  10.47
383.6  1031.94  108.48  10.51
385.2  1082.13  103.77  9.59
386.7  1134.44  101.08  8.91
388.3  1183.47  103.27  8.73
389.8  1236.62  113.09  9.15
391.3  1283.89  111.77  8.71
392.9  1324.35  115.70  8.74
394.4  1356.15  123.05  9.07
395.9  1406.72  129.79  9.23
397.5  1480.96  133.08  8.99
399.0  1545.00  137.61  8.91
400.6  1586.22  133.20  8.40
402.1  1624.11  121.09  7.46
403.6  1645.88  122.43  7.44
405.1  1688.62  120.34  7.13
406.7  1751.68  120.66  6.89
408.2  1815.41  122.96  6.77
409.7  1871.52  128.13  6.85
411.3  1932.39  128.52  6.65
412.8  1975.40  133.67  6.77
414.3  2044.89  134.12  6.56
415.8  2106.25  141.67  6.73
417.4  2169.48  141.68  6.53
418.9  2222.61  145.73  6.56
420.4  2266.93  144.57  6.38
421.9  2296.58  145.20  6.32
423.5  2335.00  148.20  6.35
425.0  2376.73  145.04  6.10
426.5  2428.43  145.05  5.97
428.0  2489.68  145.04  5.83
429.5  2574.41  146.15  5.68
431.1  2658.69  150.42  5.66
432.6  2748.21  153.54  5.59
434.1  2843.23  154.26  5.43
435.6  2926.69  156.35  5.34
437.1  3007.88  159.64  5.31
438.6  3080.14  163.49  5.31
440.1  3160.11  166.53  5.27
441.6  3238.04  169.81  5.24
443.1  3312.90  173.88  5.25
444.7  3389.72  180.57  5.33
446.2  3441.68  179.62  5.22
447.7  3501.62  182.10  5.20
449.2  3564.00  184.61  5.18
450.7  3621.28  179.71  4.96
452.2  3682.41  182.09  4.94
453.7  3758.53  182.53  4.86
455.2  3840.40  184.76  4.81
456.7  3952.96  187.50  4.74
458.2  4072.55  192.23  4.72
459.7  4195.63  197.17  4.70
461.2  4317.19  200.74  4.65
462.7  4419.51  208.12  4.71
464.2  4528.34  211.31  4.67
465.7  4636.49  218.29  4.71
467.2  4730.69  221.50  4.68
468.7  4831.00  226.40  4.69
470.2  4904.47  231.61  4.72
471.7  4994.63  240.98  4.82
473.2  5152.65  244.19  4.74
474.6  5277.65  245.49  4.65
476.1  5315.90  239.42  4.50
477.6  5339.08  237.77  4.45
479.1  5368.13  236.80  4.41
480.6  5404.66  237.47  4.39
482.1  5475.21  236.88  4.33
483.6  5562.12  237.25  4.27
485.1  5668.27  238.21  4.20
486.6  5791.79  243.61  4.21
488.0  5923.94  246.13  4.15
489.5  6066.75  250.86  4.13
491.0  6201.68  255.85  4.13
492.5  6345.54  262.87  4.14
494.0  6492.59  267.49  4.12
495.4  6616.50  277.20  4.19
496.9  6746.80  281.45  4.17
498.4  6868.17  287.27  4.18
499.9  6989.37  296.09  4.24
501.4  7101.28  302.00  4.25
502.8  7211.42  308.89  4.28
504.3  7308.90  315.12  4.31
505.8  7405.94  321.16  4.34
507.2  7465.75  324.42  4.35
508.7  7504.76  332.22  4.43
510.2  7549.77  336.09  4.45
511.6  7573.93  340.30  4.49
513.1  7619.32  342.08  4.49
514.6  7684.06  348.65  4.54
516.0  7736.05  351.75  4.55
517.5  7828.25  354.53  4.53
519.0  7931.31  362.30  4.57
520.5  8033.54  366.93  4.57
521.9  8170.54  373.46  4.57
523.4  8322.71  381.52  4.58
524.8  8476.58  390.33  4.60
526.3  8648.70  402.38  4.65
527.8  8824.59  408.96  4.63
529.2  8983.24  419.90  4.67
530.7  9161.81  427.72  4.67
532.1  9325.79  440.23  4.72
533.6  9502.17  452.23  4.76
535.0  9689.01  462.69  4.78
536.5  9867.79  474.24  4.81
538.0  10049.16  486.99  4.85
539.4  10231.78  498.55  4.87
540.9  10443.93  513.22  4.91
542.3  10618.63  525.03  4.94
543.8  10743.19  533.43  4.97
545.2  10787.72  541.62  5.02
546.6  10787.25  542.53  5.03
548.1  10798.67  549.01  5.08
549.5  10797.77  552.77  5.12
551.0  10799.56  556.96  5.16
552.4  10821.09  564.00  5.21
553.9  10825.03  570.17  5.27
555.3  10846.78  580.55  5.35
556.8  10905.15  590.47  5.41
558.2  10950.19  602.55  5.50
559.6  11027.13  614.95  5.58
561.1  11132.88  635.27  5.71
562.5  11245.54  656.81  5.84
564.0  11402.49  676.90  5.94
565.4  11543.72  700.92  6.07
566.8  11723.98  731.62  6.24
568.3  11891.25  762.56  6.41
569.7  12076.06  795.68  6.59
571.1  12249.63  834.11  6.81
572.6  12426.21  870.91  7.01
574.0  12599.40  912.34  7.24
575.4  12769.31  954.45  7.47
576.9  12924.45  1000.00  7.74
578.3  13072.88  1046.05  8.00
579.7  13214.09  1097.17  8.30
581.1  13332.32  1151.00  8.63
582.6  13457.72  1212.42  9.01
584.0  13568.00  1267.48  9.34
585.4  13711.91  1336.12  9.74
586.8  13919.40  1409.44  10.13
588.3  14140.62  1485.12  10.50
589.7  14327.82  1565.62  10.93
591.1  14447.26  1638.94  11.34
592.5  14518.46  1709.55  11.78
594.0  14547.66  1780.14  12.24
595.4  14566.76  1851.55  12.71
596.8  14575.28  1925.07  13.21
598.2  14586.43  2003.65  13.74
599.6  14584.19  2079.38  14.26
601.0  14621.32  2167.80  14.83
602.4  14656.48  2255.19  15.39
603.9  14720.65  2351.62  15.97
605.3  14787.56  2451.40  16.58
606.7  14850.90  2556.00  17.21
608.1  14956.71  2664.27  17.81
609.5  15087.13  2784.53  18.46
610.9  15240.09  2912.52  19.11
612.3  15378.24  3040.01  19.77
613.7  15565.24  3176.35  20.41
615.1  15698.61  3301.56  21.03
616.5  15834.13  3435.55  21.70
617.9  16040.22  3584.90  22.35
619.3  16231.37  3742.43  23.06
620.7  16465.73  3914.98  23.78
622.1  16702.31  4054.29  24.27
623.5  16967.59  4175.49  24.61
624.9  17268.83  4300.00  24.90
626.3  17464.11  4409.09  25.25
627.7  17297.90  4449.81  25.72
629.1  17131.07  4519.87  26.38
630.5  17065.89  4627.60  27.12
631.9  17068.07  4756.80  27.87
633.3  17072.86  4878.72  28.58
634.7  17143.21  5003.74  29.19
636.1  17175.19  5081.73  29.59
637.5  17214.12  5148.20  29.91
638.9  17282.65  5216.46  30.18
640.2  17345.48  5268.18  30.37
641.6  17368.65  5303.38  30.53
643.0  17347.86  5311.72  30.62
644.4  17346.99  5333.82  30.75
645.8  17303.92  5336.93  30.84
647.2  17371.51  5380.98  30.98
648.5  17405.34  5419.30  31.14
649.9  17326.73  5450.93  31.46
651.3  17269.88  5509.02  31.90
652.7  17194.65  5569.54  32.39
654.1  17110.53  5473.67  31.99
655.5  17000.34  5320.10  31.29
656.8  16892.62  5183.15  30.68
658.2  16993.27  5114.02  30.09
659.6  17201.86  5082.20  29.54
660.9  17374.35  5042.90  29.02
662.3  17542.46  4989.01  28.44
663.7  17706.15  4923.24  27.81
665.0  17850.15  4856.39  27.21
666.4  17993.38  4793.83  26.64
667.8  18172.37  4755.27  26.17
669.1  18340.58  4712.50  25.69
670.5  18513.22  4695.84  25.36
671.9  18629.28  4680.58  25.12
673.2  18784.35  4701.05  25.03
674.6  18934.77  4741.57  25.04
676.0  19107.41  4818.15  25.22
677.3  19274.00  4923.81  25.55
678.7  19460.75  5073.37  26.07
680.0  19693.92  5297.03  26.90
681.4  19949.74  5597.86  28.06
682.8  20190.63  5979.91  29.62
684.1  20434.05  6462.14  31.62
685.5  20661.50  7027.15  34.01
686.8  20876.79  7662.74  36.70
688.2  21063.54  8333.66  39.56
689.5  21136.22  8987.45  42.52
690.9  21189.20  9649.64  45.54
692.2  21241.50  10281.60  48.40
693.6  21283.52  10894.27  51.19
694.9  21276.87  11435.99  53.75
696.2  21306.77  11944.59  56.06
697.6  21332.37  12400.32  58.13
698.9  21357.60  12832.51  60.08
700.3  21390.71  13227.18  61.84
701.6  21429.47  13586.73  63.40
703.0  21471.99  13907.70  64.77
704.3  21485.34  14166.84  65.94
705.6  21483.00  14390.08  66.98
707.0  21491.89  14597.66  67.92
708.3  21438.50  14746.58  68.79
709.6  21384.38  14871.24  69.54
711.0  21305.08  14948.62  70.16
712.3  21214.65  15019.57  70.80
713.6  21181.23  15098.27  71.28
714.9  21115.22  15170.37  71.85
716.3  21103.70  15245.81  72.24
717.6  21104.62  15325.72  72.62
718.9  21048.57  15350.63  72.93
720.2  20942.08  15307.66  73.10
721.6  20841.80  15286.47  73.35
722.9  20742.62  15250.17  73.52
724.2  20595.93  15199.97  73.80
725.5  20483.80  15162.20  74.02
726.8  20382.67  15105.16  74.11
728.1  20319.64  15064.35  74.14
729.5  20266.07  15029.80  74.16
730.8  20224.65  15005.52  74.19
732.1  20162.40  14972.57  74.26
733.4  20118.51  14941.69  74.27
734.7  20079.83  14904.00  74.22
736.0  20072.78  14908.72  74.27
737.3  20029.99  14899.71  74.39
738.6  20078.49  14941.77  74.42
739.9  20158.75  15041.38  74.61
741.2  20237.49  15099.45  74.61
742.5  20374.08  15234.76  74.78
743.8  20609.53  15441.20  74.92
745.1  20972.39  15746.68  75.08
746.4  21401.61  16074.91  75.11
747.7  21849.92  16391.05  75.02
749.0  22279.29  16679.32  74.86
750.3  22537.39  16804.92  74.56
751.6  22489.95  16740.25  74.43
752.9  22268.69  16585.53  74.48
754.2  22020.08  16415.62  74.55
755.4  21752.37  16263.76  74.77
756.7  21671.76  16241.40  74.94
758.0  21695.15  16301.69  75.14
759.3  21840.20  16459.12  75.36
760.6  22048.18  16660.34  75.56
761.9  22241.80  16839.49  75.71
763.1  22361.42  16951.57  75.81
764.4  22495.96  17074.88  75.90
765.7  22607.00  17188.60  76.03
767.0  22707.99  17273.40  76.07
768.2  22787.52  17353.28  76.15
769.5  22847.70  17430.16  76.29
770.8  22968.83  17524.87  76.30
772.0  23007.05  17570.91  76.37
773.3  23073.57  17643.56  76.47
774.6  23142.26  17726.42  76.60
775.8  23217.35  17773.56  76.55
777.1  23250.39  17808.37  76.59
778.4  23228.21  17807.00  76.66
779.6  23232.20  17829.10  76.74
780.9  23206.00  17840.53  76.88
782.1  23123.66  17804.97  77.00
783.4  23129.60  17838.08  77.12
784.6  23156.94  17877.84  77.20
785.9  23323.57  18067.16  77.46
787.1  23657.54  18349.83  77.56
788.4  23905.77  18495.21  77.37
789.6  23910.81  18374.86  76.85
790.9  23703.38  18146.21  76.56
792.1  23443.52  17973.36  76.67
793.4  23200.49  17810.21  76.77
794.6  23038.97  17690.13  76.78
795.8  22887.63  17589.52  76.85
797.1  22746.90  17498.46  76.93
798.3  22633.05  17439.13  77.05
799.5  22585.37  17404.39  77.06
800.8  22510.70  17358.64  77.11
802.0  22435.02  17311.60  77.16
803.2  22355.92  17232.65  77.08
804.5  22286.88  17190.93  77.13
805.7  22221.30  17130.63  77.09
806.9  22163.45  17067.09  77.01
808.1  22106.40  17044.28  77.10
809.4  22068.13  17019.26  77.12
810.6  22012.90  16995.16  77.21
811.8  21998.30  16991.41  77.24
813.0  22023.85  16995.53  77.17
814.2  22034.44  17024.89  77.26
815.4  22094.68  17050.29  77.17
816.6  22117.02  17051.21  77.10
817.9  22159.15  17030.12  76.85
819.1  22110.24  16964.44  76.73
820.3  22040.68  16882.59  76.60
821.5  21976.08  16822.82  76.55
822.7  21945.91  16780.40  76.46
823.9  21946.82  16756.70  76.35
825.1  21950.55  16725.96  76.20
826.3  21976.62  16694.60  75.97
827.5  21980.34  16677.81  75.88
828.7  22017.96  16647.65  75.61
829.9  22041.74  16618.29  75.39
831.0  22083.57  16621.65  75.27
832.2  22125.60  16620.66  75.12
833.4  22169.16  16616.25  74.95
834.6  22207.03  16626.88  74.87
835.8  22252.39  16630.11  74.73
837.0  22278.53  16670.36  74.83
838.1  22362.84  16719.30  74.76
839.3  22423.92  16743.06  74.67
840.5  22463.55  16782.38  74.71
841.7  22539.94  16840.48  74.71
842.9  22590.38  16922.54  74.91
844.0  22640.76  16956.51  74.89
845.2  22733.43  17013.27  74.84
846.4  22779.40  17040.14  74.81
847.5  22894.92  17120.96  74.78
848.7  22986.81  17192.54  74.79
849.9  23090.42  17222.97  74.59
851.0  23115.33  17209.76  74.45
852.2  23147.70  17211.37  74.35
853.3  23146.04  17174.62  74.20
854.5  23138.69  17157.78  74.15
855.6  23131.08  17146.91  74.13
856.8  23140.08  17160.43  74.16
857.9  23125.66  17149.74  74.16
859.1  23200.40  17186.40  74.08
860.2  23210.88  17188.78  74.05
861.4  23238.19  17206.68  74.04
862.5  23256.69  17220.00  74.04
863.7  23299.75  17238.78  73.99
864.8  23308.25  17244.78  73.99
865.9  23278.88  17222.32  73.98
867.1  23298.62  17232.88  73.97
868.2  23308.26  17225.51  73.90
869.3  23327.36  17201.97  73.74
870.5  23292.12  17172.68  73.73
871.6  23289.32  17180.92  73.77
872.7  23336.56  17192.80  73.67
873.9  23363.45  17183.30  73.55
875.0  23323.98  17166.97  73.60
876.1  23338.58  17147.82  73.47
877.2  23352.60  17145.86  73.42
878.3  23349.40  17115.19  73.30
879.4  23378.40  17105.20  73.17
880.5  23403.42  17108.69  73.10
881.7  23389.60  17066.75  72.97
882.8  23432.80  17062.29  72.81
883.9  23448.21  17025.75  72.61
885.0  23450.02  16974.87  72.39
886.1  23424.56  16923.90  72.25
887.2  23365.96  16811.76  71.95
888.3  23308.56  16732.04  71.78
889.4  23276.53  16659.77  71.57
890.5  23201.38  16611.23  71.60
891.6  23192.34  16549.67  71.36
892.7  23215.89  16520.74  71.16
893.8  23203.09  16552.87  71.34
894.9  23213.03  16537.47  71.24
896.0  23219.08  16484.01  70.99
897.0  23233.59  16456.01  70.83
898.1  23265.19  16433.92  70.64
899.2  23265.94  16433.42  70.63
900.3  23202.69  16367.40  70.54
901.4  23182.22  16319.63  70.40
902.4  23192.03  16306.08  70.31
903.5  23179.29  16257.83  70.14
904.6  23181.33  16256.21  70.13
905.7  23181.52  16221.95  69.98
906.7  23201.08  16181.66  69.75
907.8  23205.26  16184.28  69.74
908.9  23171.38  16116.80  69.55
909.9  23142.01  16092.51  69.54
911.0  23135.89  16018.92  69.24
912.1  23112.25  15970.73  69.10
913.1  23069.80  15901.53  68.93
914.2  23011.95  15829.73  68.79
915.2  23006.97  15797.52  68.66
916.3  23024.55  15765.10  68.47
917.3  23013.50  15708.72  68.26
918.4  22970.06  15617.95  67.99
919.4  22959.52  15558.44  67.76
920.5  22948.10  15488.12  67.49
921.5  22992.94  15433.62  67.12
922.6  22908.19  15359.19  67.05
923.6  22998.44  15315.27  66.59
924.7  22983.50  15283.63  66.50
925.7  22963.47  15196.76  66.18
926.7  22993.12  15118.12  65.75
927.8  23046.06  15073.68  65.41
928.8  23129.73  15019.97  64.94
929.9  23214.82  14976.86  64.51
930.9  23325.95  14984.33  64.24
931.9  23422.51  14979.95  63.96
932.9  23590.71  14998.17  63.58
934.0  23628.34  14907.78  63.09
935.0  23647.48  14850.66  62.80
936.0  23654.47  14773.08  62.45
937.0  23611.58  14699.05  62.25
938.1  23603.32  14576.08  61.75
939.1  23584.34  14493.10  61.45
940.1  23673.00  14419.09  60.91
941.1  23749.98  14434.94  60.78
942.1  23913.97  14387.12  60.16
943.1  24007.97  14368.43  59.85
944.1  24139.96  14340.40  59.41
945.2  24191.16  14287.28  59.06
946.2  24274.20  14198.65  58.49
947.2  24295.69  14129.35  58.16
948.2  24407.51  14058.00  57.60
949.2  24434.31  13963.52  57.15
950.2  24503.20  13879.53  56.64
951.2  24568.74  13807.81  56.20
952.2  24624.11  13704.27  55.65
953.2  24717.31  13630.13  55.14
954.2  24858.68  13535.34  54.45
955.2  24833.48  13473.94  54.26
956.2  24781.87  13365.19  53.93
957.2  24889.44  13278.62  53.35
958.2  24934.17  13250.39  53.14
959.2  25016.63  13200.12  52.77
960.1  25036.42  13184.83  52.66
961.1  25110.32  13141.50  52.34
962.1  25088.91  13107.63  52.24
963.1  25119.92  13127.30  52.26
964.1  25214.63  13109.11  51.99
965.1  25330.49  13125.94  51.82
966.1  25308.67  13112.38  51.81
967.0  25429.11  13122.53  51.60
968.0  25412.72  13137.70  51.70
969.0  25476.70  13133.89  51.55
970.0  25548.92  13134.61  51.41
971.0  25553.38  13142.39  51.43
971.9  25577.75  13184.86  51.55
972.9  25632.47  13155.95  51.33
973.9  25687.84  13159.29  51.23
974.9  25707.07  13150.24  51.15
975.8  25785.50  13203.54  51.21
976.8  25887.84  13190.90  50.95
977.8  25820.50  13201.75  51.13
978.8  25860.98  13252.26  51.24
979.7  25944.03  13362.55  51.51
981.4  26534.70  13168.50  49.63
985.3  26407.57  13199.41  49.98
989.3  26474.11  13358.53  50.46
993.3  26619.54  13569.63  50.98
997.2  26659.40  13718.99  51.46
1001.2  26636.74  13837.42  51.95
1005.2  26603.49  13960.94  52.48
1009.1  26619.65  14141.69  53.13
1013.1  26716.01  14377.53  53.82
1017.1  26794.94  14614.37  54.54
1021.0  26801.46  14811.82  55.26
1025.0  26791.13  14990.27  55.95
1029.0  26701.37  15107.85  56.58
1032.9  26612.69  15220.70  57.19
1036.9  26609.51  15389.16  57.83
1040.9  26674.31  15615.81  58.54
1044.8  26787.82  15859.28  59.20
1048.8  26888.29  16063.88  59.74
1052.7  26960.57  16261.55  60.32
1056.7  26977.24  16380.45  60.72
1060.7  26985.60  16466.22  61.02
1064.6  27010.97  16545.22  61.25
1068.6  26982.88  16545.92  61.32
1072.5  26926.21  16522.33  61.36
1076.5  26904.28  16496.25  61.31
1080.4  26907.72  16451.78  61.14
1084.4  26967.74  16411.13  60.85
1088.3  27046.80  16349.81  60.45
1092.3  27030.17  16222.28  60.02
1096.2  27021.53  16080.88  59.51
1100.2  27064.25  15967.44  59.00
1104.1  26999.93  15793.29  58.49
1108.1  26976.31  15627.72  57.93
1112.0  26929.62  15435.27  57.32
1116.0  26827.19  15183.31  56.60
1119.9  26743.36  14909.46  55.75
1123.9  26789.11  14651.00  54.69
1127.8  26776.32  14257.92  53.25
1131.8  26765.25  13745.21  51.35
1135.7  26806.82  13152.81  49.07
1139.6  26802.37  12490.08  46.60
1143.6  26782.94  11867.94  44.31
1147.5  26783.56  11342.17  42.35
1151.4  26689.51  10885.60  40.79
1155.4  26684.50  10603.07  39.73
1159.3  26717.33  10430.47  39.04
1163.2  26640.39  10267.91  38.54
1167.2  26631.42  10176.32  38.21
1171.1  26649.11  10114.81  37.96
1175.0  26624.79  10049.67  37.75
1179.0  26612.16  9990.70  37.54
1182.9  26679.08  9955.04  37.31
1186.8  26688.13  9909.02  37.13
1190.7  26563.51  9816.42  36.95
1194.7  26418.25  9726.33  36.82
1198.6  26292.42  9665.04  36.76
1202.5  26222.77  9637.81  36.75
1206.4  26156.30  9628.69  36.81
1210.3  26101.80  9633.21  36.91
1214.2  26061.58  9650.44  37.03
1218.2  25980.18  9670.75  37.22
1222.1  25898.70  9706.01  37.48
1226.0  25846.71  9756.50  37.75
1229.9  25808.88  9801.82  37.98
1233.8  25765.00  9832.38  38.16
1237.7  25743.41  9868.00  38.33
1241.6  25703.07  9903.16  38.53
1245.5  25624.12  9914.92  38.69
1249.4  25550.35  9917.45  38.82
1253.3  25491.83  9922.40  38.92
1257.2  25468.72  9937.53  39.02
1261.1  25410.02  9937.73  39.11
1265.0  25340.06  9924.16  39.16
1268.9  25238.59  9877.01  39.13
1272.8  25273.80  9870.50  39.05
1276.7  25394.86  9884.16  38.92
1280.6  25450.19  9852.17  38.71
1284.5  25408.33  9767.68  38.44
1288.4  25396.88  9688.78  38.15
1292.3  25335.75  9565.42  37.75
1296.2  25253.77  9423.01  37.31
1300.1  25154.45  9255.17  36.79
1303.9  25021.28  9052.27  36.18
1307.8  24888.83  8836.29  35.50
1311.7  24744.05  8600.39  34.76
1315.6  24606.58  8355.42  33.96
1319.5  24454.91  8093.10  33.09
1323.3  24310.87  7829.05  32.20
1327.2  24198.13  7563.11  31.25
1331.1  24066.72  7291.00  30.29
1335.0  23889.51  7016.79  29.37
1338.8  23760.57  6765.81  28.47
1342.7  23672.67  6547.24  27.66
1346.5  23478.13  6323.58  26.93
1350.4  23310.26  6132.98  26.31
1354.3  23083.45  5927.24  25.68
1358.1  22838.31  5710.21  25.00
1362.0  22679.75  5514.72  24.32
1365.8  22617.02  5332.82  23.58
1369.7  22674.59  5164.42  22.78
1373.5  22638.01  4942.54  21.83
1377.4  22496.49  4642.66  20.64
1381.2  22378.35  4274.73  19.10
1385.1  22350.32  3899.00  17.44
1389.0  22288.46  3533.77  15.85
1392.8  22173.23  3172.65  14.31
1396.6  22085.45  2846.58  12.89
1400.5  21959.65  2567.42  11.69
1404.3  21857.78  2350.93  10.76
1408.2  21838.81  2174.78  9.96
1412.0  21801.98  2035.88  9.34
1415.8  21812.41  1941.43  8.90
1419.6  21792.97  1858.89  8.53
1423.5  21771.98  1795.30  8.25
1427.3  21755.09  1755.06  8.07
1431.1  21750.38  1723.60  7.92
1434.9  21698.88  1690.55  7.79
1438.8  21663.77  1668.35  7.70
1442.6  21637.50  1657.91  7.66
1446.4  21563.28  1638.86  7.60
1450.2  21516.17  1625.45  7.55
1454.0  21457.08  1620.32  7.55
1457.8  21441.21  1622.17  7.57
1461.6  21431.12  1625.78  7.59
1465.4  21362.81  1631.85  7.64
1469.2  21250.78  1645.58  7.74
1473.0  21169.27  1665.25  7.87
1476.8  21139.84  1698.63  8.04
1480.7  21105.82  1734.32  8.22
1484.4  21030.72  1775.36  8.44
1488.2  20973.72  1826.28  8.71
1492.0  20900.33  1882.11  9.01
1495.8  20827.63  1934.51  9.29
1499.6  20757.13  1975.89  9.52
1503.4  20685.81  2011.92  9.73
1507.2  20635.20  2036.64  9.87
1510.9  20559.83  2061.06  10.02
1514.7  20479.56  2086.12  10.19
1518.5  20410.03  2118.83  10.38
1522.3  20318.91  2155.79  10.61
1526.0  20257.55  2192.90  10.83
1529.8  20222.14  2234.46  11.05
1533.6  20145.31  2274.48  11.29
1537.3  20069.96  2312.17  11.52
1541.1  19997.77  2354.14  11.77
1544.8  19920.00  2399.20  12.04
1548.6  19840.21  2433.65  12.27
1552.4  19790.40  2466.15  12.46
1556.1  19745.13  2495.15  12.64
1559.9  19688.26  2519.29  12.80
1563.6  19618.47  2554.64  13.02
1567.3  19559.76  2603.51  13.31
1571.1  19433.54  2632.37  13.55
1574.8  19353.80  2671.85  13.81
1578.6  19306.98  2716.75  14.07
1582.3  19224.28  2739.39  14.25
1586.0  19146.44  2758.59  14.41
1589.8  19074.77  2774.12  14.54
1593.5  18983.01  2787.12  14.68
1597.2  18910.28  2804.37  14.83
1600.9  18837.12  2819.52  14.97
1604.7  18753.01  2841.15  15.15
1608.4  18685.00  2863.14  15.32
1612.1  18589.61  2879.60  15.49
1615.8  18506.95  2895.22  15.64
1619.5  18470.24  2916.90  15.79
1623.2  18382.61  2933.01  15.96
1626.9  18281.26  2943.54  16.10
1630.6  18186.30  2954.01  16.24
1634.3  18110.82  2963.66  16.36
1638.0  18019.81  2965.53  16.46
1641.7  17928.53  2965.67  16.54
1645.4  17837.69  2959.78  16.59
1649.1  17719.40  2946.09  16.63
1652.8  17632.13  2940.27  16.68
1656.4  17542.23  2928.43  16.69
1660.1  17452.82  2915.49  16.70
1663.8  17351.33  2904.84  16.74
1667.5  17263.22  2890.48  16.74
1671.1  17190.62  2870.94  16.70
1674.8  17086.89  2851.70  16.69
1678.5  17055.43  2841.01  16.66
1682.1  17058.87  2828.71  16.58
1685.8  17063.96  2820.46  16.53
1689.5  17004.15  2795.43  16.44
1693.1  16926.54  2765.00  16.34
1696.8  16843.50  2738.38  16.26
1700.4  16752.61  2705.95  16.15
1704.0  16684.20  2672.66  16.02
1707.7  16548.84  2623.62  15.85
1711.3  16387.05  2564.95  15.65
1715.0  16263.58  2514.54  15.46
1718.6  16168.21  2470.28  15.28
1722.2  16083.03  2426.46  15.09
1725.9  15998.19  2385.66  14.91
1729.5  15924.10  2353.52  14.78
1733.1  15857.39  2327.03  14.67
1736.7  15790.22  2305.44  14.60
1740.3  15689.65  2272.06  14.48
1744.0  15648.28  2247.45  14.36
1747.5  15570.19  2210.88  14.20
1751.2  15444.89  2162.84  14.00
1754.8  15352.25  2127.42  13.86
1758.4  15274.29  2089.18  13.68
1762.0  15165.37  2047.37  13.50
1765.5  15091.31  2018.71  13.38
1769.1  15074.40  2006.40  13.31
1772.7  15027.15  1991.68  13.25
1776.3  14954.60  1967.48  13.16
1779.9  14886.09  1950.16  13.10
1783.5  14852.72  1936.05  13.03
1787.0  14774.09  1915.90  12.97
1790.6  14686.84  1896.64  12.91
1794.2  14626.25  1886.98  12.90
1797.8  14572.31  1880.88  12.91
1801.3  14527.22  1875.18  12.91
1804.9  14445.38  1866.38  12.92
1808.4  14404.59  1860.30  12.91
1812.0  14321.63  1853.44  12.94
1815.5  14236.38  1846.85  12.97
1819.1  14124.74  1831.20  12.96
1822.6  14025.96  1822.03  12.99
1826.2  13954.81  1816.41  13.02
1829.7  13857.23  1799.20  12.98
1833.2  13724.80  1777.08  12.95
1836.8  13596.77  1753.87  12.90
1840.3  13507.92  1727.91  12.79
1843.8  13431.88  1716.14  12.78
1847.3  13384.53  1700.73  12.71
1850.8  13325.76  1681.34  12.62
1854.3  13223.04  1646.44  12.45
1857.8  13161.20  1579.07  12.00
1861.3  13149.65  1515.21  11.52
1864.8  13113.55  1428.05  10.89
1868.3  13008.00  1304.96  10.03
1871.8  12902.40  1167.36  9.05
1875.3  12863.31  1054.54  8.20
1878.8  12861.64  951.28  7.40
1882.3  12814.79  861.63  6.72
1885.8  12721.10  789.72  6.21
1889.3  12603.25  714.55  5.67
1892.7  12484.14  667.00  5.34
1896.2  12425.34  652.78  5.25
1899.7  12309.09  648.04  5.26
1901.7  11509.78  583.92  5.07
1904.5  11595.68  555.45  4.79
1907.2  11575.75  546.25  4.72
1910.0  11534.65  514.48  4.46
1912.7  11509.58  483.07  4.20
1915.5  11429.24  485.47  4.25
1918.2  11379.10  479.50  4.21
1921.0  11291.49  461.88  4.09
1923.7  11305.65  458.01  4.05
1926.5  11284.35  462.45  4.10
1929.2  11297.09  453.21  4.01
1932.0  11293.84  442.40  3.92
1934.7  11256.00  445.03  3.95
1937.4  11153.59  440.44  3.95
1940.2  11119.32  452.81  4.07
1942.9  11202.56  459.80  4.10
1945.6  11207.22  450.99  4.02
1948.3  11145.88  455.26  4.08
1951.1  11140.01  455.51  4.09
1953.8  11145.00  458.00  4.11
1956.5  11045.56  460.24  4.17
1959.2  11104.86  472.42  4.25
1961.9  11124.34  461.90  4.15
1964.6  11058.08  457.16  4.13
1967.3  11092.37  467.74  4.22
1970.0  10987.52  470.64  4.28
1972.8  10943.00  482.43  4.41
1975.5  10983.78  481.93  4.39
1978.2  10935.40  486.67  4.45
1980.9  10858.38  492.64  4.54
1983.5  10836.45  499.26  4.61
1986.2  10831.02  502.46  4.64
1988.9  10819.38  498.58  4.61
1991.6  10735.05  500.16  4.66
1994.3  10649.29  505.46  4.75
1997.0  10665.45  507.47  4.76
1999.7  10628.04  521.69  4.91
2002.3  10626.41  522.59  4.92
2005.0  10577.50  521.63  4.93
2007.7  10537.87  533.20  5.06
2010.4  10503.55  532.94  5.07
2013.0  10469.60  534.86  5.11
2015.7  10417.55  534.23  5.13
2018.4  10373.69  541.80  5.22
2021.0  10341.67  551.56  5.33
2023.7  10246.67  553.08  5.40
2026.4  10218.87  545.50  5.34
2029.0  10197.92  546.40  5.36
2031.7  10117.47  561.45  5.55
2034.3  10100.57  554.88  5.49
2037.0  10052.37  559.25  5.56
2039.6  10015.47  575.79  5.75
2042.3  10000.48  558.86  5.59
2044.9  9966.17  565.68  5.68
2047.5  9926.90  583.44  5.88
2050.2  9839.20  564.67  5.74
2052.8  9839.20  579.60  5.89
2055.4  9775.02  573.41  5.87
2058.1  9676.80  561.87  5.81
2060.7  9656.73  582.29  6.03
2063.3  9627.93  580.55  6.03
2065.9  9594.96  578.81  6.03
2068.6  9550.29  584.39  6.12
2071.2  9522.27  601.71  6.32
2073.8  9469.56  606.31  6.40
2076.4  9438.82  592.21  6.27
2079.0  9427.55  590.10  6.26
2081.6  9427.48  600.18  6.37
2084.2  9413.08  606.66  6.44
2086.8  9327.84  609.98  6.54
2089.4  9281.57  608.94  6.56
2092.1  9228.17  596.89  6.47
2094.7  9209.50  591.37  6.42
2097.2  9211.17  608.22  6.60
2099.8  9177.65  612.98  6.68
2102.4  9110.04  613.21  6.73
2105.0  9037.35  615.60  6.81
2107.6  9009.28  610.49  6.78
2110.2  9002.40  610.01  6.78
2112.8  8990.87  615.61  6.85
2115.3  8991.97  633.14  7.04
2117.9  8986.46  635.46  7.07
2120.5  8943.22  628.67  7.03
2123.1  8918.33  631.80  7.08
2125.6  8905.06  640.33  7.19
2128.2  8835.61  638.99  7.23
2130.8  8804.25  646.43  7.34
2133.3  8785.33  653.16  7.43
2135.9  8707.33  642.26  7.38
2138.4  8648.47  645.32  7.46
2141.0  8594.63  644.47  7.50
2143.6  8560.47  639.10  7.47
2146.1  8482.97  641.54  7.56
2148.7  8378.31  645.09  7.70
2151.2  8395.20  647.29  7.71
2153.8  8409.10  648.52  7.71
2156.3  8334.31  640.87  7.69
2158.8  8295.91  636.94  7.68
2161.4  8278.92  655.51  7.92
2163.9  8211.11  656.50  8.00
2166.4  8178.14  652.44  7.98
2169.0  8184.05  652.44  7.97
2171.5  8127.88  636.67  7.83
2174.0  8074.15  638.64  7.91
2176.5  8046.09  642.85  7.99
2179.1  8026.09  636.46  7.93
2181.6  7963.08  638.75  8.02
2184.1  7927.92  637.56  8.04
2186.6  7968.23  655.91  8.23
2189.1  7928.70  642.00  8.10
2191.6  7879.20  632.64  8.03
2194.1  7902.25  645.51  8.17
2196.6  7910.84  640.84  8.10
2199.2  7922.01  636.04  8.03
2201.7  7911.90  642.32  8.12
2204.1  7872.42  647.49  8.22
2206.6  7859.11  646.53  8.23
2209.1  7834.95  658.59  8.41
2211.6  7811.28  642.06  8.22
2214.1  7823.83  636.15  8.13
2216.6  7801.78  638.12  8.18
2219.1  7778.99  622.93  8.01
2221.6  7769.41  639.52  8.23
2224.0  7730.49  647.70  8.38
2226.5  7705.13  630.37  8.18
2229.0  7700.89  628.10  8.16
2231.5  7614.04  612.80  8.05
2233.9  7619.70  617.02  8.10
2236.4  7646.66  612.45  8.01
2238.9  7587.25  594.17  7.83
2241.3  7617.87  602.43  7.91
2243.8  7590.66  599.84  7.90
2246.2  7466.46  591.84  7.93
2248.7  7485.79  565.65  7.56
2251.2  7456.07  568.82  7.63
2253.6  7388.16  586.24  7.93
2256.1  7392.00  555.52  7.52
2258.5  7429.78  550.64  7.41
2260.9  7370.87  547.13  7.42
2263.4  7335.06  536.09  7.31
2265.8  7324.05  543.66  7.42
2268.3  7284.90  523.38  7.18
2270.7  7335.06  511.78  6.98
2273.1  7298.01  507.50  6.95
2275.6  7249.92  505.60  6.97
2278.0  7263.90  495.79  6.83
2280.4  7254.11  493.87  6.81
2282.8  7154.84  483.96  6.76
2285.3  7173.98  470.49  6.56
2287.7  7228.16  484.22  6.70
2290.1  7183.21  478.36  6.66
2292.5  7174.75  478.85  6.67
2294.9  7172.28  478.15  6.67
2297.3  7095.27  461.42  6.50
2299.7  7055.67  447.48  6.34
2302.1  7047.43  436.04  6.19
2304.5  6969.76  419.44  6.02
2306.9  6871.76  405.07  5.89
2309.3  6829.66  420.57  6.16
2311.7  6841.28  416.05  6.08
2314.1  6762.12  393.84  5.82
2316.5  6698.00  418.95  6.25
2318.9  6708.72  434.90  6.48
2321.3  6699.18  413.33  6.17
2323.7  6692.83  419.30  6.26
2326.1  6669.65  425.84  6.38
2328.4  6684.27  397.34  5.94
2330.8  6719.87  392.64  5.84
2333.2  6684.06  400.85  6.00
2335.6  6626.06  386.11  5.83
2337.9  6656.47  382.56  5.75
2340.3  6637.57  390.45  5.88
2342.7  6554.85  386.49  5.90
2345.0  6590.83  385.03  5.84
2347.4  6579.00  385.33  5.86
2349.7  6450.22  353.13  5.47
2352.1  6436.79  353.07  5.49
2354.4  6443.20  363.93  5.65
2356.8  6410.25  356.84  5.57
2359.2  6387.33  358.22  5.61
2361.5  6370.47  349.07  5.48
2363.8  6359.13  348.41  5.48
2366.2  6364.03  363.36  5.71
2368.5  6327.90  356.00  5.63
2370.9  6289.51  341.47  5.43
2373.2  6299.83  344.74  5.47
2375.5  6271.65  334.85  5.34
2377.9  6231.24  323.64  5.19
2380.2  6231.07  326.83  5.25
2382.5  6226.23  323.19  5.19
2384.8  6166.56  318.61  5.17
2387.2  6137.03  328.18  5.35
2389.5  6105.12  322.65  5.28
2391.8  6108.03  302.63  4.95
2394.1  6113.08  295.90  4.84
2396.4  6043.08  301.59  4.99
2398.7  6045.74  303.67  5.02
2401.0  6037.85  296.70  4.91
2403.3  5976.00  283.86  4.75
2405.6  5958.01  296.57  4.98
2407.9  5961.90  315.63  5.29
2410.2  5895.68  275.73  4.68
2412.5  5854.08  260.86  4.46
2414.8  5884.71  284.14  4.83
2417.1  5832.68  275.29  4.72
2419.4  5803.94  276.13  4.76
2421.7  5771.82  282.11  4.89
2424.0  5758.83  280.02  4.86
2426.2  5767.30  267.50  4.64
2428.5  5732.83  261.41  4.56
2430.8  5706.15  267.05  4.68
2433.1  5636.77  248.92  4.42
2435.4  5600.60  253.64  4.53
2437.6  5600.60  266.70  4.76
2439.9  5575.70  247.06  4.43
2442.2  5563.19  246.50  4.43
2444.4  5553.80  254.62  4.58
2446.7  5507.12  245.28  4.45
2448.9  5507.15  240.81  4.37
2451.2  5507.04  244.36  4.44
2453.4  5448.11  241.07  4.42
2455.7  5430.93  235.16  4.33
2457.9  5354.09  244.20  4.56
2460.2  5363.55  226.05  4.21
2462.4  5410.08  222.56  4.11
2464.7  5343.16  225.00  4.21
2466.9  5296.50  214.00  4.04
2469.2  5269.60  220.38  4.18
2471.4  5219.18  218.84  4.19
2473.6  5235.49  225.40  4.31
2475.9  5195.15  223.52  4.30
2478.1  5116.92  189.01  3.69
2480.3  5082.02  185.65  3.65
2482.5  5118.21  200.15  3.91
2484.8  5046.20  194.18  3.85
2487.0  4999.50  162.95  3.26
2489.2  5095.91  155.79  3.06
2491.4  4987.57  181.88  3.65
2493.6  4938.15  195.96  3.97
2495.8  4972.71  213.80  4.30
2498.0  4904.53  210.77  4.30
2500.2  4920.20  190.97  3.88
2502.4  5079.36  216.08  4.25
2504.6  5192.67  237.88  4.58
2506.8  5279.98  227.31  4.31
