/*** Spectra Vista SIG Data ***/
name= RS1.sig
comm= Averaged Ref/Tar of files: RD4S1,RD4S2,RD4S3
data=
346.4  300.98  122.73  40.78
347.9  318.46  124.25  39.01
349.5  343.20  126.05  36.73
351.1  374.40  126.88  33.89
352.6  409.54  134.94  32.95
354.2  435.24  141.81  32.58
355.7  456.30  150.41  32.96
357.3  495.85  155.81  31.42
358.8  506.78  158.44  31.26
360.4  548.73  166.50  30.34
361.9  565.91  168.55  29.78
363.5  593.82  170.82  28.77
365.1  620.68  175.69  28.31
366.6  647.34  176.77  27.31
368.2  683.25  181.30  26.54
369.7  726.46  176.75  24.33
371.3  772.09  188.77  24.45
372.8  813.40  193.44  23.78
374.4  856.07  198.92  23.24
375.9  883.77  203.45  23.02
377.4  909.07  205.99  22.66
379.0  945.20  210.89  22.31
380.5  966.34  212.55  22.00
382.1  1004.70  211.58  21.06
383.6  1031.94  211.68  20.51
385.2  1082.13  220.37  20.36
386.7  1134.44  223.82  19.73
388.3  1183.47  231.53  19.56
389.8  1236.62  231.31  18.71
391.3  1283.89  246.56  19.20
392.9  1324.35  254.15  19.19
394.4  1356.15  266.28  19.64
395.9  1406.72  274.65  19.52
397.5  1480.96  282.52  19.08
399.0  1545.00  283.04  18.32
400.6  1586.22  280.74  17.70
402.1  1624.11  281.74  17.35
403.6  1645.88  288.02  17.50
405.1  1688.62  285.47  16.91
406.7  1751.68  293.89  16.78
408.2  1815.41  301.75  16.62
409.7  1871.52  309.42  16.53
411.3  1932.39  319.46  16.53
412.8  1975.40  332.43  16.83
414.3  2044.89  337.43  16.50
415.8  2106.25  346.67  16.46
417.4  2169.48  359.60  16.58
418.9  2222.61  359.60  16.18
420.4  2266.93  364.57  16.08
421.9  2296.58  370.42  16.13
423.5  2335.00  373.60  16.00
425.0  2376.73  371.89  15.65
426.5  2428.43  376.11  15.49
428.0  2489.68  379.30  15.24
429.5  2574.41  387.63  15.06
431.1  2658.69  398.87  15.00
432.6  2748.21  415.00  15.10
434.1  2843.23  422.47  14.86
435.6  2926.69  437.05  14.93
437.1  3007.88  447.98  14.89
438.6  3080.14  457.71  14.86
440.1  3160.11  464.96  14.71
441.6  3238.04  477.13  14.74
443.1  3312.90  487.89  14.73
444.7  3389.72  500.87  14.78
446.2  3441.68  509.97  14.82
447.7  3501.62  517.23  14.77
449.2  3564.00  517.54  14.52
450.7  3621.28  513.07  14.17
452.2  3682.41  519.81  14.12
453.7  3758.53  527.46  14.03
455.2  3840.40  540.18  14.07
456.7  3952.96  552.87  13.99
458.2  4072.55  569.45  13.98
459.7  4195.63  586.83  13.99
461.2  4317.19  602.45  13.95
462.7  4419.51  619.10  14.01
464.2  4528.34  636.11  14.05
465.7  4636.49  648.62  13.99
467.2  4730.69  664.00  14.04
468.7  4831.00  681.07  14.10
470.2  4904.47  706.31  14.40
471.7  4994.63  718.52  14.39
473.2  5152.65  715.02  13.88
474.6  5277.65  701.81  13.30
476.1  5315.90  710.06  13.36
477.6  5339.08  722.97  13.54
479.1  5368.13  732.81  13.65
480.6  5404.66  735.83  13.61
482.1  5475.21  737.43  13.47
483.6  5562.12  742.88  13.36
485.1  5668.27  753.09  13.29
486.6  5791.79  770.59  13.30
488.0  5923.94  785.63  13.26
489.5  6066.75  807.28  13.31
491.0  6201.68  824.96  13.30
492.5  6345.54  845.21  13.32
494.0  6492.59  868.73  13.38
495.4  6616.50  887.92  13.42
496.9  6746.80  906.25  13.43
498.4  6868.17  926.59  13.49
499.9  6989.37  945.54  13.53
501.4  7101.28  965.33  13.59
502.8  7211.42  986.46  13.68
504.3  7308.90  999.60  13.68
505.8  7405.94  1021.21  13.79
507.2  7465.75  1030.90  13.81
508.7  7504.76  1045.40  13.93
510.2  7549.77  1055.96  13.99
511.6  7573.93  1056.61  13.95
513.1  7619.32  1063.91  13.96
514.6  7684.06  1071.15  13.94
516.0  7736.05  1079.24  13.95
517.5  7828.25  1091.05  13.94
519.0  7931.31  1109.33  13.99
520.5  8033.54  1132.47  14.10
521.9  8170.54  1152.83  14.11
523.4  8322.71  1178.39  14.16
524.8  8476.58  1204.39  14.21
526.3  8648.70  1236.35  14.30
527.8  8824.59  1267.99  14.37
529.2  8983.24  1296.45  14.43
530.7  9161.81  1327.25  14.49
532.1  9325.79  1354.39  14.52
533.6  9502.17  1386.06  14.59
535.0  9689.01  1416.26  14.62
536.5  9867.79  1449.49  14.69
538.0  10049.16  1485.98  14.79
539.4  10231.78  1524.03  14.90
540.9  10443.93  1557.25  14.91
542.3  10618.63  1580.79  14.89
543.8  10743.19  1593.29  14.83
545.2  10787.72  1600.69  14.84
546.6  10787.25  1619.10  15.01
548.1  10798.67  1630.33  15.10
549.5  10797.77  1641.31  15.20
551.0  10799.56  1647.23  15.25
552.4  10821.09  1658.48  15.33
553.9  10825.03  1668.28  15.41
555.3  10846.78  1683.86  15.52
556.8  10905.15  1705.51  15.64
558.2  10950.19  1729.13  15.79
559.6  11027.13  1755.84  15.92
561.1  11132.88  1794.87  16.12
562.5  11245.54  1837.32  16.34
564.0  11402.49  1889.74  16.57
565.4  11543.72  1938.58  16.79
566.8  11723.98  2004.58  17.10
568.3  11891.25  2069.83  17.41
569.7  12076.06  2139.96  17.72
571.1  12249.63  2214.13  18.08
572.6  12426.21  2292.84  18.45
574.0  12599.40  2372.26  18.83
575.4  12769.31  2457.68  19.25
576.9  12924.45  2540.31  19.66
578.3  13072.88  2634.06  20.15
579.7  13214.09  2731.30  20.67
581.1  13332.32  2826.60  21.20
582.6  13457.72  2929.39  21.77
584.0  13568.00  3025.38  22.30
585.4  13711.91  3131.41  22.84
586.8  13919.40  3253.87  23.38
588.3  14140.62  3377.09  23.88
589.7  14327.82  3492.84  24.38
591.1  14447.26  3612.32  25.00
592.5  14518.46  3724.38  25.65
594.0  14547.66  3830.54  26.33
595.4  14566.76  3936.79  27.03
596.8  14575.28  4044.61  27.75
598.2  14586.43  4154.17  28.48
599.6  14584.19  4263.92  29.24
601.0  14621.32  4383.72  29.98
602.4  14656.48  4509.32  30.77
603.9  14720.65  4644.70  31.55
605.3  14787.56  4788.64  32.38
606.7  14850.90  4934.64  33.23
608.1  14956.71  5101.88  34.11
609.5  15087.13  5276.79  34.98
610.9  15240.09  5466.33  35.87
612.3  15378.24  5658.39  36.79
613.7  15565.24  5862.23  37.66
615.1  15698.61  6047.78  38.52
616.5  15834.13  6236.18  39.38
617.9  16040.22  6460.00  40.27
619.3  16231.37  6688.78  41.21
620.7  16465.73  6943.64  42.17
622.1  16702.31  7173.80  42.95
623.5  16967.59  7387.27  43.54
624.9  17268.83  7598.92  44.00
626.3  17464.11  7703.83  44.11
627.7  17297.90  7628.39  44.10
629.1  17131.07  7578.61  44.24
630.5  17065.89  7627.84  44.70
631.9  17068.07  7801.72  45.71
633.3  17072.86  8024.80  47.00
634.7  17143.21  8261.48  48.19
636.1  17175.19  8431.77  49.09
637.5  17214.12  8568.75  49.78
638.9  17282.65  8706.81  50.38
640.2  17345.48  8821.42  50.86
641.6  17368.65  8917.90  51.34
643.0  17347.86  8983.56  51.78
644.4  17346.99  9046.07  52.15
645.8  17303.92  9078.56  52.47
647.2  17371.51  9161.06  52.74
648.5  17405.34  9230.93  53.04
649.9  17326.73  9247.01  53.37
651.3  17269.88  9299.68  53.85
652.7  17194.65  9343.54  54.34
654.1  17110.53  9189.90  53.71
655.5  17000.34  8966.48  52.74
656.8  16892.62  8756.22  51.83
658.2  16993.27  8658.74  50.95
659.6  17201.86  8626.85  50.15
660.9  17374.35  8576.83  49.36
662.3  17542.46  8518.58  48.56
663.7  17706.15  8449.56  47.72
665.0  17850.15  8369.43  46.89
666.4  17993.38  8302.40  46.14
667.8  18172.37  8260.55  45.46
669.1  18340.58  8216.27  44.80
670.5  18513.22  8205.67  44.32
671.9  18629.28  8191.55  43.97
673.2  18784.35  8231.81  43.82
674.6  18934.77  8287.40  43.77
676.0  19107.41  8387.27  43.90
677.3  19274.00  8537.82  44.30
678.7  19460.75  8750.18  44.96
680.0  19693.92  9067.60  46.04
681.4  19949.74  9475.82  47.50
682.8  20190.63  9998.17  49.52
684.1  20434.05  10634.21  52.04
685.5  20661.50  11364.47  55.00
686.8  20876.79  12164.54  58.27
688.2  21063.54  12998.32  61.71
689.5  21136.22  13799.14  65.29
690.9  21189.20  14581.41  68.82
692.2  21241.50  15329.24  72.17
693.6  21283.52  16051.21  75.42
694.9  21276.87  16682.59  78.41
696.2  21306.77  17282.09  81.11
697.6  21332.37  17817.25  83.52
698.9  21357.60  18303.30  85.70
700.3  21390.71  18740.20  87.61
701.6  21429.47  19147.40  89.35
703.0  21471.99  19517.34  90.90
704.3  21485.34  19816.70  92.23
705.6  21483.00  20077.58  93.46
707.0  21491.89  20307.41  94.49
708.3  21438.50  20462.76  95.45
709.6  21384.38  20592.09  96.30
711.0  21305.08  20659.26  96.97
712.3  21214.65  20714.87  97.64
713.6  21181.23  20792.47  98.16
714.9  21115.22  20838.62  98.69
716.3  21103.70  20915.69  99.11
717.6  21104.62  21010.20  99.55
718.9  21048.57  21027.55  99.90
720.2  20942.08  20968.46  100.13
721.6  20841.80  20916.84  100.36
722.9  20742.62  20858.36  100.56
724.2  20595.93  20758.30  100.79
725.5  20483.80  20704.98  101.08
726.8  20382.67  20624.75  101.19
728.1  20319.64  20577.66  101.27
729.5  20266.07  20530.31  101.30
730.8  20224.65  20485.26  101.29
732.1  20162.40  20428.70  101.32
733.4  20118.51  20392.71  101.36
734.7  20079.83  20348.42  101.34
736.0  20072.78  20344.96  101.36
737.3  20029.99  20324.46  101.47
738.6  20078.49  20386.90  101.54
739.9  20158.75  20508.59  101.74
741.2  20237.49  20602.76  101.80
742.5  20374.08  20778.81  101.99
743.8  20609.53  21072.59  102.25
745.1  20972.39  21480.25  102.42
746.4  21401.61  21922.57  102.43
747.7  21849.92  22357.15  102.32
749.0  22279.29  22737.48  102.06
750.3  22537.39  22901.15  101.61
751.6  22489.95  22788.33  101.33
752.9  22268.69  22563.08  101.32
754.2  22020.08  22340.15  101.45
755.4  21752.37  22136.16  101.76
756.7  21671.76  22120.25  102.07
758.0  21695.15  22197.18  102.31
759.3  21840.20  22404.55  102.58
760.6  22048.18  22664.69  102.80
761.9  22241.80  22912.38  103.01
763.1  22361.42  23074.17  103.19
764.4  22495.96  23261.68  103.40
765.7  22607.00  23399.13  103.50
767.0  22707.99  23508.52  103.53
768.2  22787.52  23609.15  103.61
769.5  22847.70  23699.22  103.73
770.8  22968.83  23838.87  103.79
772.0  23007.05  23885.26  103.82
773.3  23073.57  23978.81  103.92
774.6  23142.26  24083.28  104.07
775.8  23217.35  24160.20  104.06
777.1  23250.39  24206.72  104.11
778.4  23228.21  24201.79  104.19
779.6  23232.20  24232.90  104.31
780.9  23206.00  24227.73  104.40
782.1  23123.66  24186.31  104.60
783.4  23129.60  24213.97  104.69
784.6  23156.94  24276.16  104.83
785.9  23323.57  24527.62  105.16
787.1  23657.54  24903.93  105.27
788.4  23905.77  25119.74  105.08
789.6  23910.81  24963.39  104.40
790.9  23703.38  24651.06  104.00
792.1  23443.52  24404.55  104.10
793.4  23200.49  24187.43  104.25
794.6  23038.97  24014.09  104.23
795.8  22887.63  23878.28  104.33
797.1  22746.90  23743.64  104.38
798.3  22633.05  23671.84  104.59
799.5  22585.37  23630.97  104.63
800.8  22510.70  23566.89  104.69
802.0  22435.02  23490.14  104.70
803.2  22355.92  23395.52  104.65
804.5  22286.88  23328.86  104.68
805.7  22221.30  23254.09  104.65
806.9  22163.45  23172.22  104.55
808.1  22106.40  23130.18  104.63
809.4  22068.13  23100.72  104.68
810.6  22012.90  23070.32  104.80
811.8  21998.30  23068.57  104.87
813.0  22023.85  23099.55  104.88
814.2  22034.44  23126.04  104.95
815.4  22094.68  23166.17  104.85
816.6  22117.02  23175.22  104.78
817.9  22159.15  23159.40  104.51
819.1  22110.24  23068.10  104.33
820.3  22040.68  22960.43  104.17
821.5  21976.08  22882.23  104.12
822.7  21945.91  22825.03  104.01
823.9  21946.82  22787.40  103.83
825.1  21950.55  22753.74  103.66
826.3  21976.62  22724.61  103.40
827.5  21980.34  22717.49  103.35
828.7  22017.96  22691.78  103.06
829.9  22041.74  22659.48  102.80
831.0  22083.57  22671.73  102.66
832.2  22125.60  22676.75  102.49
833.4  22169.16  22689.31  102.35
834.6  22207.03  22724.38  102.33
835.8  22252.39  22739.85  102.19
837.0  22278.53  22778.48  102.24
838.1  22362.84  22857.43  102.21
839.3  22423.92  22888.35  102.07
840.5  22463.55  22954.74  102.19
841.7  22539.94  23042.93  102.23
842.9  22590.38  23136.01  102.42
844.0  22640.76  23196.81  102.46
845.2  22733.43  23287.92  102.44
846.4  22779.40  23350.32  102.51
847.5  22894.92  23462.19  102.48
848.7  22986.81  23539.57  102.40
849.9  23090.42  23600.36  102.21
851.0  23115.33  23604.42  102.12
852.2  23147.70  23604.77  101.97
853.3  23146.04  23569.54  101.83
854.5  23138.69  23534.07  101.71
855.6  23131.08  23519.41  101.68
856.8  23140.08  23541.80  101.74
857.9  23125.66  23539.81  101.79
859.1  23200.40  23598.85  101.72
860.2  23210.88  23607.78  101.71
861.4  23238.19  23645.50  101.75
862.5  23256.69  23647.36  101.68
863.7  23299.75  23682.78  101.64
864.8  23308.25  23692.62  101.65
865.9  23278.88  23662.14  101.65
867.1  23298.62  23675.92  101.62
868.2  23308.26  23657.97  101.50
869.3  23327.36  23647.42  101.37
870.5  23292.12  23606.11  101.35
871.6  23289.32  23613.97  101.39
872.7  23336.56  23636.91  101.29
873.9  23363.45  23636.87  101.17
875.0  23323.98  23617.36  101.26
876.1  23338.58  23604.57  101.14
877.2  23352.60  23606.11  101.09
878.3  23349.40  23562.60  100.91
879.4  23378.40  23556.99  100.76
880.5  23403.42  23554.95  100.65
881.7  23389.60  23522.55  100.57
882.8  23432.80  23528.14  100.41
883.9  23448.21  23501.63  100.23
885.0  23450.02  23431.68  99.92
886.1  23424.56  23364.91  99.75
887.2  23365.96  23251.02  99.51
888.3  23308.56  23137.10  99.26
889.4  23276.53  23045.60  99.01
890.5  23201.38  22960.35  98.96
891.6  23192.34  22902.71  98.75
892.7  23215.89  22885.35  98.58
893.8  23203.09  22892.99  98.66
894.9  23213.03  22890.74  98.61
896.0  23219.08  22842.19  98.38
897.0  23233.59  22830.13  98.26
898.1  23265.19  22797.72  97.99
899.2  23265.94  22794.58  97.97
900.3  23202.69  22712.53  97.89
901.4  23182.22  22651.14  97.71
902.4  23192.03  22626.99  97.56
903.5  23179.29  22556.86  97.31
904.6  23181.33  22539.74  97.23
905.7  23181.52  22530.34  97.19
906.7  23201.08  22489.37  96.93
907.8  23205.26  22495.03  96.94
908.9  23171.38  22412.45  96.72
909.9  23142.01  22357.43  96.61
911.0  23135.89  22317.95  96.46
912.1  23112.25  22231.03  96.19
913.1  23069.80  22137.79  95.96
914.2  23011.95  22044.34  95.80
915.2  23006.97  21997.98  95.61
916.3  23024.55  21978.68  95.46
917.3  23013.50  21882.01  95.08
918.4  22970.06  21804.35  94.93
919.4  22959.52  21739.73  94.69
920.5  22948.10  21642.04  94.31
921.5  22992.94  21606.79  93.97
922.6  22908.19  21508.77  93.89
923.6  22998.44  21469.47  93.35
924.7  22983.50  21375.30  93.00
925.7  22963.47  21308.77  92.79
926.7  22993.12  21233.53  92.35
927.8  23046.06  21142.45  91.74
928.8  23129.73  21104.34  91.24
929.9  23214.82  21084.58  90.82
930.9  23325.95  21064.52  90.31
931.9  23422.51  21109.09  90.12
932.9  23590.71  21143.23  89.63
934.0  23628.34  21083.69  89.23
935.0  23647.48  21007.42  88.84
936.0  23654.47  20910.37  88.40
937.0  23611.58  20751.22  87.89
938.1  23603.32  20664.85  87.55
939.1  23584.34  20554.73  87.15
940.1  23673.00  20468.04  86.46
941.1  23749.98  20471.36  86.20
942.1  23913.97  20479.24  85.64
943.1  24007.97  20449.27  85.18
944.1  24139.96  20428.00  84.62
945.2  24191.16  20351.13  84.13
946.2  24274.20  20253.13  83.43
947.2  24295.69  20194.47  83.12
948.2  24407.51  20115.24  82.41
949.2  24434.31  20024.44  81.95
950.2  24503.20  19921.03  81.30
951.2  24568.74  19816.83  80.66
952.2  24624.11  19701.23  80.01
953.2  24717.31  19641.75  79.47
954.2  24858.68  19569.36  78.72
955.2  24833.48  19450.97  78.33
956.2  24781.87  19332.88  78.01
957.2  24889.44  19262.30  77.39
958.2  24934.17  19175.45  76.90
959.2  25016.63  19147.50  76.54
960.1  25036.42  19100.98  76.29
961.1  25110.32  19118.08  76.14
962.1  25088.91  19066.50  76.00
963.1  25119.92  19054.90  75.86
964.1  25214.63  19075.95  75.65
965.1  25330.49  19077.63  75.31
966.1  25308.67  19063.96  75.33
967.0  25429.11  19072.85  75.00
968.0  25412.72  19077.38  75.07
969.0  25476.70  19085.95  74.92
970.0  25548.92  19123.62  74.85
971.0  25553.38  19151.55  74.95
971.9  25577.75  19127.03  74.78
972.9  25632.47  19201.20  74.91
973.9  25687.84  19180.94  74.67
974.9  25707.07  19175.94  74.59
975.8  25785.50  19186.57  74.41
976.8  25887.84  19210.40  74.21
977.8  25820.50  19297.15  74.74
978.8  25860.98  19358.56  74.86
979.7  25944.03  19415.54  74.84
980.7  26085.84  19463.64  74.61
981.7  26216.93  19535.89  74.52
982.6  26357.49  19741.71  74.90
983.6  26637.96  20016.88  75.14
984.6  26867.99  20174.14  75.09
985.5  27228.96  20517.98  75.35
986.5  27586.71  20815.18  75.45
987.5  28229.74  21251.74  75.28
988.4  29129.10  21539.17  73.94
989.4  29461.65  22104.56  75.03
990.4  30215.79  22615.62  74.85
991.3  31016.90  23041.12  74.29
992.3  32083.73  23475.90  73.17
993.2  32873.87  24085.06  73.27
994.2  33903.68  24322.94  71.74
995.2  33992.36  24731.89  72.76
996.1  34230.84  25265.62  73.81
997.1  34851.51  24754.34  71.03
998.0  34260.00  24484.48  71.47
999.0  34687.92  25100.57  72.36
1000.0  34688.89  24400.97  70.34
1000.9  35217.36  24448.85  69.42
1001.9  35272.85  24217.98  68.66
1002.8  34914.90  24085.01  68.98
1003.8  33603.76  24555.48  73.07
1004.8  35367.90  24339.20  68.82
961.5  31131.28  19336.20  62.11
965.5  30535.97  19248.46  63.04
969.5  29322.48  18817.94  64.18
973.4  27903.28  18211.51  65.27
977.4  26904.56  17719.80  65.86
981.4  26534.70  17581.39  66.26
985.3  26407.57  17679.35  66.95
989.3  26474.11  17967.86  67.87
993.3  26619.54  18309.61  68.78
997.2  26659.40  18549.07  69.58
1001.2  26636.74  18720.13  70.28
1005.2  26603.49  18871.37  70.94
1009.1  26619.65  19084.56  71.69
1013.1  26716.01  19385.03  72.56
1017.1  26794.94  19707.43  73.55
1021.0  26801.46  19951.58  74.44
1025.0  26791.13  20164.83  75.27
1029.0  26701.37  20318.89  76.10
1032.9  26612.69  20460.09  76.88
1036.9  26609.51  20653.82  77.62
1040.9  26674.31  20917.62  78.42
1044.8  26787.82  21231.16  79.26
1048.8  26888.29  21508.01  79.99
1052.7  26960.57  21745.30  80.66
1056.7  26977.24  21908.04  81.21
1060.7  26985.60  22016.38  81.59
1064.6  27010.97  22108.57  81.85
1068.6  26982.88  22114.83  81.96
1072.5  26926.21  22086.99  82.03
1076.5  26904.28  22055.12  81.98
1080.4  26907.72  22000.60  81.76
1084.4  26967.74  21964.40  81.45
1088.3  27046.80  21904.45  80.99
1092.3  27030.17  21753.74  80.48
1096.2  27021.53  21592.82  79.91
1100.2  27064.25  21454.48  79.27
1104.1  26999.93  21239.67  78.67
1108.1  26976.31  21054.78  78.05
1112.0  26929.62  20832.68  77.36
1116.0  26827.19  20513.59  76.47
1119.9  26743.36  20172.00  75.43
1123.9  26789.11  19868.69  74.17
1127.8  26776.32  19388.16  72.41
1131.8  26765.25  18770.60  70.13
1135.7  26806.82  18062.33  67.38
1139.6  26802.37  17260.42  64.40
1143.6  26782.94  16482.49  61.54
1147.5  26783.56  15822.33  59.07
1151.4  26689.51  15262.10  57.18
1155.4  26684.50  14911.60  55.88
1159.3  26717.33  14688.23  54.98
1163.2  26640.39  14480.27  54.35
1167.2  26631.42  14370.04  53.96
1171.1  26649.11  14300.97  53.66
1175.0  26624.79  14220.99  53.41
1179.0  26612.16  14146.64  53.16
1182.9  26679.08  14111.39  52.89
1186.8  26688.13  14052.69  52.66
1190.7  26563.51  13929.80  52.44
1194.7  26418.25  13814.12  52.29
1198.6  26292.42  13732.95  52.23
1202.5  26222.77  13684.75  52.19
1206.4  26156.30  13671.78  52.27
1210.3  26101.80  13676.43  52.40
1214.2  26061.58  13701.02  52.57
1218.2  25980.18  13729.02  52.84
1222.1  25898.70  13767.01  53.16
1226.0  25846.71  13822.34  53.48
1229.9  25808.88  13876.46  53.77
1233.8  25765.00  13921.47  54.03
1237.7  25743.41  13968.27  54.26
1241.6  25703.07  14009.14  54.50
1245.5  25624.12  14027.51  54.74
1249.4  25550.35  14040.56  54.95
1253.3  25491.83  14040.40  55.08
1257.2  25468.72  14046.94  55.15
1261.1  25410.02  14051.23  55.30
1265.0  25340.06  14041.76  55.41
1268.9  25238.59  13986.37  55.42
1272.8  25273.80  13985.90  55.34
1276.7  25394.86  14008.01  55.16
1280.6  25450.19  13979.26  54.93
1284.5  25408.33  13877.54  54.62
1288.4  25396.88  13769.05  54.22
1292.3  25335.75  13616.17  53.74
1296.2  25253.77  13438.83  53.22
1300.1  25154.45  13231.10  52.60
1303.9  25021.28  12971.84  51.84
1307.8  24888.83  12696.57  51.01
1311.7  24744.05  12401.39  50.12
1315.6  24606.58  12086.72  49.12
1319.5  24454.91  11750.27  48.05
1323.3  24310.87  11410.23  46.93
1327.2  24198.13  11074.46  45.77
1331.1  24066.72  10729.33  44.58
1335.0  23889.51  10370.05  43.41
1338.8  23760.57  10048.10  42.29
1342.7  23672.67  9764.67  41.25
1346.5  23478.13  9479.65  40.38
1350.4  23310.26  9236.90  39.63
1354.3  23083.45  8971.34  38.86
1358.1  22838.31  8696.08  38.08
1362.0  22679.75  8438.97  37.21
1365.8  22617.02  8201.28  36.26
1369.7  22674.59  7996.33  35.27
1373.5  22638.01  7716.09  34.08
1377.4  22496.49  7333.48  32.60
1381.2  22378.35  6862.32  30.66
1385.1  22350.32  6383.23  28.56
1389.0  22288.46  5910.28  26.52
1392.8  22173.23  5443.53  24.55
1396.6  22085.45  5028.54  22.77
1400.5  21959.65  4654.80  21.20
1404.3  21857.78  4357.49  19.94
1408.2  21838.81  4137.35  18.94
1412.0  21801.98  3955.80  18.14
1415.8  21812.41  3827.16  17.55
1419.6  21792.97  3722.50  17.08
1423.5  21771.98  3640.05  16.72
1427.3  21755.09  3577.92  16.45
1431.1  21750.38  3537.88  16.27
1434.9  21698.88  3495.50  16.11
1438.8  21663.77  3467.87  16.01
1442.6  21637.50  3452.77  15.96
1446.4  21563.28  3429.08  15.90
1450.2  21516.17  3414.06  15.87
1454.0  21457.08  3401.00  15.85
1457.8  21441.21  3405.71  15.88
1461.6  21431.12  3415.50  15.94
1465.4  21362.81  3426.89  16.04
1469.2  21250.78  3442.84  16.20
1473.0  21169.27  3462.56  16.36
1476.8  21139.84  3501.29  16.56
1480.7  21105.82  3553.72  16.84
1484.4  21030.72  3607.72  17.15
1488.2  20973.72  3673.84  17.52
1492.0  20900.33  3739.97  17.89
1495.8  20827.63  3807.59  18.28
1499.6  20757.13  3868.98  18.64
1503.4  20685.81  3913.24  18.92
1507.2  20635.20  3952.03  19.15
1510.9  20559.83  3988.57  19.40
1514.7  20479.56  4022.56  19.64
1518.5  20410.03  4068.81  19.94
1522.3  20318.91  4108.64  20.22
1526.0  20257.55  4155.64  20.51
1529.8  20222.14  4214.73  20.84
1533.6  20145.31  4263.76  21.17
1537.3  20069.96  4309.80  21.47
1541.1  19997.77  4362.25  21.81
1544.8  19920.00  4418.40  22.18
1548.6  19840.21  4470.64  22.53
1552.4  19790.40  4515.76  22.82
1556.1  19745.13  4536.42  22.97
1559.9  19688.26  4555.78  23.14
1563.6  19618.47  4602.01  23.46
1567.3  19559.76  4666.08  23.86
1571.1  19433.54  4701.18  24.19
1574.8  19353.80  4746.95  24.53
1578.6  19306.98  4797.49  24.85
1582.3  19224.28  4825.78  25.10
1586.0  19146.44  4851.90  25.34
1589.8  19074.77  4872.15  25.54
1593.5  18983.01  4879.26  25.70
1597.2  18910.28  4894.04  25.88
1600.9  18837.12  4918.14  26.11
1604.7  18753.01  4942.97  26.36
1608.4  18685.00  4972.40  26.61
1612.1  18589.61  4991.83  26.85
1615.8  18506.95  5008.49  27.06
1619.5  18470.24  5036.10  27.27
1623.2  18382.61  5055.72  27.50
1626.9  18281.26  5058.75  27.67
1630.6  18186.30  5067.48  27.86
1634.3  18110.82  5081.83  28.06
1638.0  18019.81  5082.39  28.20
1641.7  17928.53  5071.42  28.29
1645.4  17837.69  5052.14  28.32
1649.1  17719.40  5030.26  28.39
1652.8  17632.13  5013.85  28.44
1656.4  17542.23  4989.58  28.44
1660.1  17452.82  4967.29  28.46
1663.8  17351.33  4939.48  28.47
1667.5  17263.22  4918.74  28.49
1671.1  17190.62  4899.37  28.50
1674.8  17086.89  4867.41  28.49
1678.5  17055.43  4856.29  28.47
1682.1  17058.87  4852.89  28.45
1685.8  17063.96  4841.69  28.37
1689.5  17004.15  4812.65  28.30
1693.1  16926.54  4775.55  28.21
1696.8  16843.50  4732.58  28.10
1700.4  16752.61  4686.98  27.98
1704.0  16684.20  4642.07  27.82
1707.7  16548.84  4567.45  27.60
1711.3  16387.05  4481.70  27.35
1715.0  16263.58  4411.40  27.12
1718.6  16168.21  4351.94  26.92
1722.2  16083.03  4298.28  26.73
1725.9  15998.19  4240.45  26.51
1729.5  15924.10  4191.77  26.32
1733.1  15857.39  4153.47  26.19
1736.7  15790.22  4127.88  26.14
1740.3  15689.65  4086.67  26.05
1744.0  15648.28  4049.24  25.88
1747.5  15570.19  4000.94  25.70
1751.2  15444.89  3929.11  25.44
1754.8  15352.25  3869.27  25.20
1758.4  15274.29  3820.76  25.01
1762.0  15165.37  3765.86  24.83
1765.5  15091.31  3729.23  24.71
1769.1  15074.40  3710.40  24.61
1772.7  15027.15  3686.37  24.53
1776.3  14954.60  3658.87  24.47
1779.9  14886.09  3628.14  24.37
1783.5  14852.72  3605.92  24.28
1787.0  14774.09  3579.40  24.23
1790.6  14686.84  3555.58  24.21
1794.2  14626.25  3545.91  24.24
1797.8  14572.31  3537.66  24.28
1801.3  14527.22  3527.96  24.29
1804.9  14445.38  3516.63  24.34
1808.4  14404.59  3514.18  24.40
1812.0  14321.63  3501.45  24.45
1815.5  14236.38  3487.05  24.49
1819.1  14124.74  3462.50  24.51
1822.6  14025.96  3437.23  24.51
1826.2  13954.81  3427.29  24.56
1829.7  13857.23  3407.27  24.59
1833.2  13724.80  3375.12  24.59
1836.8  13596.77  3341.07  24.57
1840.3  13507.92  3308.00  24.49
1843.8  13431.88  3291.66  24.51
1847.3  13384.53  3288.97  24.57
1850.8  13325.76  3279.36  24.61
1854.3  13223.04  3244.42  24.54
1857.8  13161.20  3178.93  24.15
1861.3  13149.65  3064.09  23.30
1864.8  13113.55  2920.82  22.27
1868.3  13008.00  2722.55  20.93
1871.8  12902.40  2521.60  19.54
1875.3  12863.31  2348.86  18.26
1878.8  12861.64  2209.34  17.18
1882.3  12814.79  2096.63  16.36
1885.8  12721.10  1983.66  15.59
1889.3  12603.25  1882.29  14.93
1892.7  12484.14  1835.73  14.70
1896.2  12425.34  1816.85  14.62
1899.7  12309.09  1805.77  14.67
1903.1  12237.46  1849.85  15.12
1906.6  12275.96  1963.08  15.99
1910.0  12425.41  2084.80  16.78
1913.5  12695.50  2236.56  17.62
1917.0  13071.45  2584.75  19.77
1920.4  13359.03  2850.54  21.34
1923.8  13383.20  2962.00  22.13
1871.2  11709.94  1713.19  14.63
1873.9  11844.38  1703.82  14.39
1876.7  11942.06  1654.18  13.85
1879.5  11955.33  1522.79  12.74
1882.3  11773.28  1416.40  12.03
1885.1  11714.58  1318.86  11.26
1887.8  11825.72  1231.50  10.41
1890.6  11726.19  1198.09  10.22
1893.4  11711.33  1163.56  9.94
1896.2  11690.33  1093.39  9.35
1898.9  11600.54  1068.42  9.21
1901.7  11509.78  1038.51  9.02
1904.5  11595.68  1024.50  8.84
1907.2  11575.75  1008.58  8.71
1910.0  11534.65  1001.57  8.68
1912.7  11509.58  986.15  8.57
1915.5  11429.24  969.68  8.48
1918.2  11379.10  974.50  8.56
1921.0  11291.49  958.15  8.49
1923.7  11305.65  967.15  8.55
1926.5  11284.35  965.06  8.55
1929.2  11297.09  940.62  8.33
1932.0  11293.84  954.32  8.45
1934.7  11256.00  964.05  8.56
1937.4  11153.59  943.94  8.46
1940.2  11119.32  948.64  8.53
1942.9  11202.56  960.19  8.57
1945.6  11207.22  945.26  8.43
1948.3  11145.88  954.65  8.57
1951.1  11140.01  967.21  8.68
1953.8  11145.00  965.00  8.66
1956.5  11045.56  964.39  8.73
1959.2  11104.86  962.78  8.67
1961.9  11124.34  967.51  8.70
1964.6  11058.08  977.78  8.84
1967.3  11092.37  973.07  8.77
1970.0  10987.52  961.01  8.75
1972.8  10943.00  984.48  9.00
1975.5  10983.78  990.19  9.02
1978.2  10935.40  970.41  8.87
1980.9  10858.38  989.16  9.11
1983.5  10836.45  1006.28  9.29
1986.2  10831.02  997.16  9.21
1988.9  10819.38  1002.98  9.27
1991.6  10735.05  1012.87  9.44
1994.3  10649.29  1008.03  9.47
1997.0  10665.45  1027.43  9.63
1999.7  10628.04  1033.80  9.73
2002.3  10626.41  1037.52  9.76
2005.0  10577.50  1062.45  10.04
2007.7  10537.87  1047.29  9.94
2010.4  10503.55  1031.61  9.82
2013.0  10469.60  1044.12  9.97
2015.7  10417.55  1051.42  10.09
2018.4  10373.69  1052.41  10.14
2021.0  10341.67  1053.05  10.18
2023.7  10246.67  1046.81  10.22
2026.4  10218.87  1058.13  10.35
2029.0  10197.92  1075.00  10.54
2031.7  10117.47  1069.39  10.57
2034.3  10100.57  1067.52  10.57
2037.0  10052.37  1072.52  10.67
2039.6  10015.47  1075.63  10.74
2042.3  10000.48  1061.55  10.61
2044.9  9966.17  1074.32  10.78
2047.5  9926.90  1083.67  10.92
2050.2  9839.20  1074.27  10.92
2052.8  9839.20  1097.60  11.16
2055.4  9775.02  1095.45  11.21
2058.1  9676.80  1079.87  11.16
2060.7  9656.73  1089.12  11.28
2063.3  9627.93  1083.08  11.25
2065.9  9594.96  1080.37  11.26
2068.6  9550.29  1089.68  11.41
2071.2  9522.27  1090.89  11.46
2073.8  9469.56  1093.22  11.54
2076.4  9438.82  1095.54  11.61
2079.0  9427.55  1094.96  11.61
2081.6  9427.48  1095.32  11.62
2084.2  9413.08  1110.80  11.80
2086.8  9327.84  1107.77  11.88
2089.4  9281.57  1102.52  11.88
2092.1  9228.17  1110.67  12.04
2094.7  9209.50  1111.17  12.07
2097.2  9211.17  1107.83  12.03
2099.8  9177.65  1115.89  12.16
2102.4  9110.04  1125.96  12.36
2105.0  9037.35  1110.55  12.29
2107.6  9009.28  1112.75  12.35
2110.2  9002.40  1134.77  12.61
2112.8  8990.87  1129.11  12.56
2115.3  8991.97  1135.42  12.63
2117.9  8986.46  1143.26  12.72
2120.5  8943.22  1142.68  12.78
2123.1  8918.33  1138.80  12.77
2125.6  8905.06  1137.17  12.77
2128.2  8835.61  1141.40  12.92
2130.8  8804.25  1148.55  13.05
2133.3  8785.33  1142.05  13.00
2135.9  8707.33  1135.48  13.04
2138.4  8648.47  1138.40  13.16
2141.0  8594.63  1131.26  13.16
2143.6  8560.47  1127.72  13.17
2146.1  8482.97  1135.18  13.38
2148.7  8378.31  1134.53  13.54
2151.2  8395.20  1128.36  13.44
2153.8  8409.10  1139.07  13.55
2156.3  8334.31  1139.00  13.67
2158.8  8295.91  1126.21  13.58
2161.4  8278.92  1133.14  13.69
2163.9  8211.11  1124.30  13.69
2166.4  8178.14  1112.69  13.61
2169.0  8184.05  1130.43  13.81
2171.5  8127.88  1128.46  13.88
2174.0  8074.15  1110.67  13.76
2176.5  8046.09  1107.30  13.76
2179.1  8026.09  1109.30  13.82
2181.6  7963.08  1119.33  14.06
2184.1  7927.92  1129.33  14.25
2186.6  7968.23  1129.80  14.18
2189.1  7928.70  1103.17  13.91
2191.6  7879.20  1105.22  14.03
2194.1  7902.25  1121.61  14.19
2196.6  7910.84  1117.50  14.13
2199.2  7922.01  1141.85  14.41
2201.7  7911.90  1122.25  14.18
2204.1  7872.42  1103.17  14.01
2206.6  7859.11  1127.70  14.35
2209.1  7834.95  1114.05  14.22
2211.6  7811.28  1102.67  14.12
2214.1  7823.83  1122.76  14.35
2216.6  7801.78  1114.18  14.28
2219.1  7778.99  1114.18  14.32
2221.6  7769.41  1107.74  14.26
2224.0  7730.49  1093.47  14.14
2226.5  7705.13  1086.96  14.11
2229.0  7700.89  1089.98  14.15
2231.5  7614.04  1087.72  14.29
2233.9  7619.70  1060.86  13.92
2236.4  7646.66  1048.63  13.71
2238.9  7587.25  1044.96  13.77
2241.3  7617.87  1041.63  13.67
2243.8  7590.66  1041.63  13.72
2246.2  7466.46  1031.19  13.81
2248.7  7485.79  1019.45  13.62
2251.2  7456.07  1023.61  13.73
2253.6  7388.16  1008.64  13.65
2256.1  7392.00  974.08  13.18
2258.5  7429.78  989.87  13.32
2260.9  7370.87  979.20  13.28
2263.4  7335.06  939.11  12.80
2265.8  7324.05  956.54  13.06
2268.3  7284.90  942.84  12.94
2270.7  7335.06  930.16  12.68
2273.1  7298.01  951.08  13.03
2275.6  7249.92  938.24  12.94
2278.0  7263.90  927.53  12.77
2280.4  7254.11  937.71  12.93
2282.8  7154.84  909.84  12.72
2285.3  7173.98  905.98  12.63
2287.7  7228.16  908.57  12.57
2290.1  7183.21  876.32  12.20
2292.5  7174.75  873.04  12.17
2294.9  7172.28  878.59  12.25
2297.3  7095.27  849.01  11.97
2299.7  7055.67  834.42  11.83
2302.1  7047.43  835.43  11.85
2304.5  6969.76  820.59  11.77
2306.9  6871.76  799.68  11.64
2309.3  6829.66  791.50  11.59
2311.7  6841.28  783.70  11.46
2314.1  6762.12  796.85  11.78
2316.5  6698.00  802.45  11.98
2318.9  6708.72  797.53  11.89
2321.3  6699.18  805.54  12.02
2323.7  6692.83  805.32  12.03
2326.1  6669.65  799.28  11.98
2328.4  6684.27  791.97  11.85
2330.8  6719.87  812.55  12.09
2333.2  6684.06  809.94  12.12
2335.6  6626.06  786.05  11.86
2337.9  6656.47  781.80  11.75
2340.3  6637.57  771.09  11.62
2342.7  6554.85  767.34  11.71
2345.0  6590.83  764.40  11.60
2347.4  6579.00  753.67  11.46
2349.7  6450.22  729.03  11.30
2352.1  6436.79  746.17  11.59
2354.4  6443.20  739.31  11.47
2356.8  6410.25  710.81  11.09
2359.2  6387.33  732.33  11.47
2361.5  6370.47  727.22  11.42
2363.8  6359.13  715.85  11.26
2366.2  6364.03  722.32  11.35
2368.5  6327.90  710.52  11.23
2370.9  6289.51  712.75  11.33
2373.2  6299.83  723.96  11.49
2375.5  6271.65  711.94  11.35
2377.9  6231.24  701.99  11.27
2380.2  6231.07  707.10  11.35
2382.5  6226.23  704.57  11.32
2384.8  6166.56  685.17  11.11
2387.2  6137.03  686.06  11.18
2389.5  6105.12  686.22  11.24
2391.8  6108.03  670.22  10.97
2394.1  6113.08  674.97  11.04
2396.4  6043.08  661.24  10.94
2398.7  6045.74  634.94  10.50
2401.0  6037.85  664.28  11.00
2403.3  5976.00  659.02  11.03
2405.6  5958.01  648.12  10.88
2407.9  5961.90  647.96  10.87
2410.2  5895.68  630.01  10.69
2412.5  5854.08  650.45  11.11
2414.8  5884.71  657.28  11.17
2417.1  5832.68  612.52  10.50
2419.4  5803.94  611.31  10.53
2421.7  5771.82  611.53  10.60
2424.0  5758.83  604.06  10.49
2426.2  5767.30  618.82  10.73
2428.5  5732.83  629.17  10.97
2430.8  5706.15  608.58  10.67
2433.1  5636.77  602.95  10.70
2435.4  5600.60  617.32  11.02
2437.6  5600.60  578.15  10.32
2439.9  5575.70  563.38  10.10
2442.2  5563.19  584.00  10.50
2444.4  5553.80  583.91  10.51
2446.7  5507.12  572.32  10.39
2448.9  5507.15  594.14  10.79
2451.2  5507.04  552.29  10.03
2453.4  5448.11  516.28  9.48
2455.7  5430.93  557.49  10.27
2457.9  5354.09  535.21  10.00
2460.2  5363.55  532.25  9.92
2462.4  5410.08  578.24  10.69
2464.7  5343.16  561.44  10.51
2466.9  5296.50  532.86  10.06
2469.2  5269.60  533.66  10.13
2471.4  5219.18  533.95  10.23
2473.6  5235.49  548.99  10.49
2475.9  5195.15  564.45  10.86
2478.1  5116.92  532.87  10.41
2480.3  5082.02  519.81  10.23
2482.5  5118.21  531.36  10.38
2484.8  5046.20  543.70  10.77
2487.0  4999.50  498.72  9.98
2489.2  5095.91  512.61  10.06
2491.4  4987.57  532.83  10.68
2493.6  4938.15  472.91  9.58
2495.8  4972.71  504.14  10.14
2498.0  4904.53  535.04  10.91
2500.2  4920.20  513.93  10.45
2502.4  5079.36  529.84  10.43
2504.6  5192.67  582.18  11.21
2506.8  5279.98  603.98  11.44
