/*** Spectra Vista SIG Data ***/
name= GB.sig
comm= SIG file reprocesed for matching/overlap;Averaged Ref/Tar of files: GB1,GB2,GB3
data=
346.4  468.20  174.11  37.19
347.9  473.76  172.56  36.42
349.5  521.04  172.12  33.03
351.1  558.48  177.84  31.84
352.6  585.06  181.32  30.99
354.2  625.05  189.80  30.37
355.7  673.50  198.68  29.50
357.3  724.71  208.05  28.71
358.8  751.43  209.70  27.91
360.4  798.47  221.02  27.68
361.9  821.87  218.24  26.55
363.5  851.78  216.98  25.47
365.1  887.68  223.08  25.13
366.6  918.37  223.84  24.37
368.2  973.68  224.95  23.10
369.7  1008.89  224.20  22.22
371.3  1073.36  228.28  21.27
372.8  1148.72  238.49  20.76
374.4  1191.49  240.86  20.22
375.9  1247.87  241.08  19.32
377.4  1278.23  248.27  19.42
379.0  1330.29  243.46  18.30
380.5  1360.26  240.05  17.65
382.1  1412.49  242.31  17.15
383.6  1460.03  241.92  16.57
385.2  1529.00  241.55  15.80
386.7  1608.26  247.29  15.38
388.3  1679.42  252.73  15.05
389.8  1759.55  262.61  14.92
391.3  1843.67  274.79  14.90
392.9  1897.62  284.98  15.02
394.4  1955.58  297.25  15.20
395.9  2019.02  315.05  15.60
397.5  2131.80  330.00  15.48
399.0  2240.25  335.78  14.99
400.6  2303.62  327.81  14.23
402.1  2342.64  322.50  13.77
403.6  2375.92  318.07  13.39
405.1  2451.81  322.57  13.16
406.7  2542.40  333.76  13.13
408.2  2650.73  345.26  13.03
409.7  2746.24  356.53  12.98
411.3  2843.51  375.23  13.20
412.8  2936.43  389.08  13.25
414.3  3034.90  405.06  13.35
415.8  3152.50  421.67  13.38
417.4  3253.58  438.53  13.48
418.9  3339.60  446.97  13.38
420.4  3424.70  454.88  13.28
421.9  3487.22  461.01  13.22
423.5  3546.87  463.89  13.08
425.0  3613.98  471.97  13.06
426.5  3695.85  477.66  12.92
428.0  3801.23  481.31  12.66
429.5  3926.30  493.75  12.58
431.1  4071.24  506.65  12.44
432.6  4225.66  525.48  12.44
434.1  4373.60  540.60  12.36
435.6  4514.36  557.28  12.34
437.1  4642.95  572.33  12.33
438.6  4769.06  588.19  12.33
440.1  4906.69  607.96  12.39
441.6  5042.30  630.45  12.50
443.1  5179.95  653.74  12.62
444.7  5318.34  674.73  12.69
446.2  5433.01  704.82  12.97
447.7  5551.25  733.91  13.22
449.2  5676.48  758.88  13.37
450.7  5788.64  780.35  13.48
452.2  5916.62  797.14  13.47
453.7  6028.91  820.43  13.61
455.2  6201.73  846.34  13.65
456.7  6390.56  880.88  13.78
458.2  6607.30  913.07  13.82
459.7  6823.25  948.50  13.90
461.2  7031.76  979.87  13.93
462.7  7219.07  1006.88  13.95
464.2  7396.86  1034.56  13.99
465.7  7583.22  1064.23  14.03
467.2  7742.35  1094.04  14.13
468.7  7912.00  1120.33  14.16
470.2  8015.91  1154.46  14.40
471.7  8177.13  1197.40  14.64
473.2  8446.52  1242.91  14.72
474.6  8688.33  1250.51  14.39
476.1  8747.12  1241.26  14.19
477.6  8779.39  1243.66  14.17
479.1  8829.54  1260.87  14.28
480.6  8916.06  1278.47  14.34
482.1  9046.91  1303.37  14.41
483.6  9204.08  1337.07  14.53
485.1  9394.00  1371.35  14.60
486.6  9626.34  1410.54  14.65
488.0  9867.00  1463.59  14.83
489.5  10130.90  1521.60  15.02
491.0  10387.73  1582.67  15.24
492.5  10649.88  1653.75  15.53
494.0  10928.34  1732.28  15.85
495.4  11158.95  1816.93  16.28
496.9  11406.10  1910.48  16.75
498.4  11649.48  2007.87  17.24
499.9  11878.23  2118.25  17.83
501.4  12101.58  2239.71  18.51
502.8  12308.24  2368.95  19.25
504.3  12497.40  2508.90  20.08
505.8  12681.02  2659.01  20.97
507.2  12808.72  2812.20  21.96
508.7  12896.48  2968.46  23.02
510.2  12964.78  3133.11  24.17
511.6  13008.39  3301.89  25.38
513.1  13093.74  3482.88  26.60
514.6  13195.49  3674.90  27.85
516.0  13281.41  3866.84  29.11
517.5  13429.99  4087.70  30.44
519.0  13603.01  4322.63  31.78
520.5  13772.72  4560.84  33.12
521.9  13993.28  4814.12  34.40
523.4  14243.35  5076.62  35.64
524.8  14493.24  5331.94  36.79
526.3  14778.04  5597.52  37.88
527.8  15074.01  5857.23  38.86
529.2  15339.71  6094.45  39.73
530.7  15629.94  6340.40  40.57
532.1  15903.48  6563.55  41.27
533.6  16214.37  6798.08  41.93
535.0  16534.98  7026.73  42.50
536.5  16856.03  7246.57  42.99
538.0  17178.24  7471.32  43.49
539.4  17501.02  7684.06  43.91
540.9  17879.62  7904.44  44.21
542.3  18237.67  8084.72  44.33
543.8  18504.51  8229.38  44.47
545.2  18600.74  8319.64  44.73
546.6  18637.00  8397.15  45.06
548.1  18690.38  8482.14  45.38
549.5  18745.60  8549.52  45.61
551.0  18790.92  8611.20  45.83
552.4  18868.34  8672.06  45.96
553.9  18922.09  8710.14  46.03
555.3  18999.63  8744.29  46.02
556.8  19143.87  8793.36  45.93
558.2  19276.31  8830.13  45.81
559.6  19441.66  8873.92  45.64
561.1  19660.88  8933.44  45.44
562.5  19883.82  8996.97  45.25
564.0  20177.05  9082.05  45.01
565.4  20444.07  9142.78  44.72
566.8  20774.24  9221.13  44.39
568.3  21077.79  9277.23  44.01
569.7  21403.31  9324.62  43.57
571.1  21706.83  9356.02  43.10
572.6  22010.94  9377.37  42.60
574.0  22299.75  9396.20  42.14
575.4  22570.31  9406.41  41.68
576.9  22820.49  9411.52  41.24
578.3  23040.88  9412.38  40.85
579.7  23243.15  9412.58  40.50
581.1  23410.31  9399.04  40.15
582.6  23592.46  9393.16  39.81
584.0  23735.52  9378.17  39.51
585.4  23971.18  9385.57  39.15
586.8  24286.87  9416.69  38.77
588.3  24642.54  9460.23  38.39
589.7  24935.04  9501.18  38.10
591.1  25126.37  9516.90  37.88
592.5  25213.30  9514.19  37.73
594.0  25248.06  9500.86  37.63
595.4  25246.58  9480.82  37.55
596.8  25248.80  9462.31  37.48
598.2  25256.70  9442.25  37.39
599.6  25254.00  9408.15  37.25
601.0  25321.45  9399.15  37.12
602.4  25392.58  9376.64  36.93
603.9  25508.50  9364.75  36.71
605.3  25652.08  9350.35  36.45
606.7  25770.60  9322.20  36.17
608.1  26003.60  9318.92  35.84
609.5  26249.20  9318.57  35.50
610.9  26543.12  9318.25  35.11
612.3  26820.62  9305.41  34.69
613.7  27191.20  9323.40  34.29
615.1  27470.34  9309.33  33.89
616.5  27748.85  9288.14  33.47
617.9  28163.94  9315.06  33.07
619.3  28559.37  9333.61  32.68
620.7  29021.55  9385.04  32.34
622.1  29524.34  9470.43  32.08
623.5  30070.32  9612.50  31.97
624.9  30686.25  9800.61  31.94
626.3  31117.56  9958.43  32.00
627.7  30854.43  9903.93  32.10
629.1  30617.27  9852.64  32.18
630.5  30534.25  9843.74  32.24
631.9  30583.88  9858.19  32.23
633.3  30636.73  9835.00  32.10
634.7  30802.72  9790.51  31.78
636.1  30887.16  9683.92  31.35
637.5  30991.21  9571.94  30.89
638.9  31137.59  9507.14  30.53
640.2  31275.86  9434.98  30.17
641.6  31334.94  9267.57  29.58
643.0  31307.82  9019.78  28.81
644.4  31297.86  8717.40  27.85
645.8  31223.60  8370.14  26.81
647.2  31327.01  8067.43  25.75
648.5  31378.61  7731.80  24.64
649.9  31215.99  7357.84  23.57
651.3  31061.55  6998.05  22.53
652.7  30880.50  6611.73  21.41
654.1  30705.72  6491.94  21.14
655.5  30448.41  6459.97  21.22
656.8  30219.54  6410.61  21.21
658.2  30347.48  6396.56  21.08
659.6  30667.01  6358.55  20.73
660.9  30915.41  6265.33  20.27
662.3  31175.28  6159.85  19.76
663.7  31418.10  6038.20  19.22
665.0  31622.76  5905.97  18.68
666.4  31821.65  5772.36  18.14
667.8  32088.83  5667.35  17.66
669.1  32304.87  5585.24  17.29
670.5  32567.66  5532.11  16.99
671.9  32723.64  5483.86  16.76
673.2  32957.22  5472.42  16.60
674.6  33165.65  5486.16  16.54
676.0  33416.99  5529.78  16.55
677.3  33670.84  5606.57  16.65
678.7  33959.63  5730.77  16.88
680.0  34360.72  5929.93  17.26
681.4  34770.40  6197.17  17.82
682.8  35166.95  6551.24  18.63
684.1  35575.02  7012.59  19.71
685.5  35948.61  7592.70  21.12
686.8  36307.14  8314.80  22.90
688.2  36654.12  9178.75  25.04
689.5  36792.82  10118.43  27.50
690.9  36894.22  11158.61  30.24
692.2  37000.50  12282.08  33.19
693.6  37086.31  13442.22  36.25
694.9  37102.94  14598.38  39.35
696.2  37172.03  15795.40  42.49
697.6  37238.58  17000.41  45.65
698.9  37321.68  18169.36  48.68
700.3  37412.04  19300.99  51.59
701.6  37521.51  20405.68  54.38
703.0  37648.39  21464.70  57.01
704.3  37727.46  22446.23  59.50
705.6  37779.39  23325.80  61.74
707.0  37853.11  24180.26  63.88
708.3  37804.36  24901.34  65.87
709.6  37779.31  25575.71  67.70
711.0  37700.05  26187.26  69.46
712.3  37603.29  26710.05  71.03
713.6  37599.66  27272.42  72.53
714.9  37564.50  27750.23  73.87
716.3  37606.65  28256.77  75.14
717.6  37655.10  28747.51  76.34
718.9  37643.31  29139.49  77.41
720.2  37519.65  29420.75  78.41
721.6  37437.79  29710.14  79.36
722.9  37295.06  29926.76  80.24
724.2  37099.21  30038.59  80.97
725.5  36957.59  30173.70  81.64
726.8  36833.83  30287.92  82.23
728.1  36764.75  30441.46  82.80
729.5  36694.32  30542.19  83.23
730.8  36660.60  30637.19  83.57
732.1  36590.42  30672.23  83.83
733.4  36549.03  30734.15  84.09
734.7  36509.02  30789.87  84.33
736.0  36510.50  30874.03  84.56
737.3  36452.29  30876.57  84.70
738.6  36538.42  31040.20  84.95
739.9  36706.85  31246.46  85.12
741.2  36841.35  31444.60  85.35
742.5  37078.82  31715.82  85.54
743.8  37494.19  32135.95  85.71
745.1  38118.44  32738.81  85.89
746.4  38876.11  33446.22  86.03
747.7  39639.96  34213.38  86.31
749.0  40400.48  34982.87  86.59
750.3  40850.46  35491.40  86.88
751.6  40764.46  35518.14  87.13
752.9  40356.61  35170.67  87.15
754.2  39863.99  34801.38  87.30
755.4  39350.05  34363.35  87.33
756.7  39155.03  34221.29  87.40
758.0  39142.09  34264.06  87.54
759.3  39351.46  34506.74  87.69
760.6  39645.76  34832.23  87.86
761.9  39928.94  35131.11  87.98
763.1  40078.15  35314.01  88.11
764.4  40287.45  35533.34  88.20
765.7  40433.25  35695.29  88.28
767.0  40515.07  35844.78  88.47
768.2  40595.52  35980.56  88.63
769.5  40644.33  36081.39  88.77
770.8  40787.04  36299.84  89.00
772.0  40799.41  36361.07  89.12
773.3  40833.29  36451.38  89.27
774.6  40907.98  36574.43  89.41
775.8  40955.53  36720.94  89.66
777.1  40964.33  36789.19  89.81
778.4  40867.87  36786.37  90.01
779.6  40816.98  36831.96  90.24
780.9  40688.00  36794.00  90.43
782.1  40484.72  36670.83  90.58
783.4  40464.32  36714.77  90.73
784.6  40463.12  36761.63  90.85
785.9  40670.74  37028.41  91.04
787.1  41171.80  37584.68  91.29
788.4  41528.97  38144.60  91.85
789.6  41482.13  38292.35  92.31
790.9  41134.16  38054.10  92.51
792.1  40655.28  37676.85  92.67
793.4  40180.32  37318.40  92.88
794.6  39846.60  37130.50  93.18
795.8  39587.54  36957.18  93.36
797.1  39290.10  36745.64  93.52
798.3  39054.26  36604.77  93.73
799.5  38943.25  36570.44  93.91
800.8  38778.22  36501.40  94.13
802.0  38618.88  36438.73  94.35
803.2  38465.20  36361.14  94.53
804.5  38332.71  36320.20  94.75
805.7  38219.65  36271.96  94.90
806.9  38073.35  36188.69  95.05
808.1  37984.05  36128.26  95.11
809.4  37906.28  36102.62  95.24
810.6  37824.15  36048.14  95.30
811.8  37796.29  36054.16  95.39
813.0  37827.58  36082.10  95.39
814.2  37840.50  36121.25  95.46
815.4  37955.24  36268.49  95.56
816.6  38027.91  36335.04  95.55
817.9  38102.35  36435.28  95.62
819.1  38072.96  36396.08  95.60
820.3  37949.69  36285.31  95.61
821.5  37894.61  36188.70  95.50
822.7  37866.54  36120.89  95.39
823.9  37906.28  36097.40  95.23
825.1  37943.15  36086.99  95.11
826.3  38020.73  36081.08  94.90
827.5  38108.05  36071.53  94.66
828.7  38176.32  36065.04  94.47
829.9  38262.68  36032.06  94.17
831.0  38386.63  36037.05  93.88
832.2  38533.16  36061.66  93.59
833.4  38634.36  36080.14  93.39
834.6  38746.88  36104.69  93.18
835.8  38872.58  36142.31  92.98
837.0  39026.76  36194.07  92.74
838.1  39200.00  36320.74  92.65
839.3  39334.99  36387.02  92.51
840.5  39499.16  36480.36  92.36
841.7  39675.29  36575.89  92.19
842.9  39834.34  36657.27  92.02
844.0  40002.80  36741.40  91.85
845.2  40188.33  36870.85  91.75
846.4  40315.24  36986.08  91.74
847.5  40575.08  37173.68  91.62
848.7  40794.29  37361.06  91.58
849.9  41043.27  37575.27  91.55
851.0  41176.72  37680.31  91.51
852.2  41283.01  37762.76  91.47
853.3  41336.03  37784.40  91.41
854.5  41385.60  37792.10  91.32
855.6  41408.01  37812.12  91.32
856.8  41491.09  37839.53  91.20
857.9  41535.42  37834.46  91.09
859.1  41657.80  37928.50  91.05
860.2  41711.76  37938.53  90.95
861.4  41789.90  37971.53  90.86
862.5  41857.52  38022.84  90.84
863.7  41978.22  38111.86  90.79
864.8  42001.40  38112.26  90.74
865.9  42003.19  38051.40  90.59
867.1  42077.89  38075.53  90.49
868.2  42118.25  38076.53  90.40
869.3  42153.63  38084.07  90.35
870.5  42092.46  38014.35  90.31
871.6  42122.53  37982.13  90.17
872.7  42223.14  38023.67  90.05
873.9  42262.83  38018.11  89.96
875.0  42247.20  37956.47  89.84
876.1  42225.11  37928.40  89.82
877.2  42279.84  37915.83  89.68
878.3  42302.12  37885.52  89.56
879.4  42284.06  37876.26  89.58
880.5  42343.92  37889.28  89.48
881.7  42326.05  37817.98  89.35
882.8  42351.34  37827.03  89.32
883.9  42430.09  37867.43  89.25
885.0  42357.32  37813.12  89.27
886.1  42357.47  37791.26  89.22
887.2  42241.92  37659.13  89.15
888.3  42147.85  37563.17  89.12
889.4  42045.32  37438.60  89.04
890.5  41945.29  37331.73  89.00
891.6  41864.40  37226.84  88.92
892.7  41844.69  37191.26  88.88
893.8  41881.85  37133.42  88.66
894.9  41879.31  37057.15  88.49
896.0  41812.69  37015.92  88.53
897.0  41850.92  37003.86  88.42
898.1  41821.61  36948.77  88.35
899.2  41852.54  36928.80  88.24
900.3  41747.94  36793.15  88.13
901.4  41622.41  36696.54  88.17
902.4  41658.53  36650.48  87.98
903.5  41604.82  36537.32  87.82
904.6  41550.72  36490.54  87.82
905.7  41565.54  36446.61  87.68
906.7  41536.49  36364.10  87.55
907.8  41558.34  36368.79  87.51
908.9  41493.73  36217.12  87.28
909.9  41451.58  36170.06  87.26
911.0  41358.23  36021.31  87.10
912.1  41297.17  35905.95  86.95
913.1  41189.72  35801.83  86.92
914.2  41099.85  35596.71  86.61
915.2  41068.89  35492.81  86.42
916.3  41034.15  35389.40  86.24
917.3  40975.74  35281.30  86.10
918.4  40862.80  35085.10  85.86
919.4  40836.29  34966.18  85.63
920.5  40782.84  34824.16  85.39
921.5  40833.45  34735.38  85.07
922.6  40729.18  34534.31  84.79
923.6  40739.49  34394.79  84.43
924.7  40774.75  34278.17  84.07
925.7  40746.72  34066.01  83.60
926.7  40808.40  33955.81  83.21
927.8  40839.01  33849.65  82.89
928.8  40966.59  33754.64  82.40
929.9  41048.46  33643.68  81.96
930.9  41217.18  33582.67  81.48
931.9  41378.61  33476.92  80.90
932.9  41679.25  33538.44  80.47
934.0  41702.58  33348.01  79.97
935.0  41757.18  33134.35  79.35
936.0  41670.71  32907.38  78.97
937.0  41632.50  32649.79  78.42
938.1  41580.55  32396.83  77.91
939.1  41508.45  32142.81  77.44
940.1  41591.64  31986.88  76.91
941.1  41779.29  31883.98  76.32
942.1  41991.60  31816.55  75.77
943.1  42156.63  31714.70  75.23
944.1  42391.18  31627.31  74.61
945.2  42445.20  31436.79  74.06
946.2  42493.04  31261.83  73.57
947.2  42572.63  31018.86  72.86
948.2  42750.54  30875.39  72.22
949.2  42846.38  30656.84  71.55
950.2  42880.60  30406.55  70.91
951.2  42968.52  30187.92  70.26
952.2  43001.40  29982.34  69.72
953.2  43164.71  29809.14  69.06
954.2  43310.48  29627.40  68.41
955.2  43368.34  29403.82  67.80
956.2  43301.73  29152.22  67.32
957.2  43392.87  29003.08  66.84
958.2  43492.10  28880.58  66.40
959.2  43506.45  28790.63  66.18
960.1  43588.22  28684.37  65.81
961.1  43692.83  28586.02  65.42
962.1  43658.44  28532.66  65.35
963.1  43782.00  28497.83  65.09
964.1  43817.42  28495.64  65.03
965.1  43908.74  28498.80  64.90
966.1  44007.38  28482.50  64.72
967.0  44141.86  28500.70  64.57
968.0  44131.86  28496.20  64.57
969.0  44255.20  28526.20  64.46
970.0  44255.36  28517.67  64.44
971.0  44316.83  28511.63  64.34
971.9  44400.90  28541.75  64.28
972.9  44577.14  28652.63  64.28
973.9  44494.78  28713.21  64.53
974.9  44573.29  28858.17  64.74
975.8  44702.44  28926.50  64.71
976.8  44666.28  28982.58  64.89
977.8  44950.93  29112.44  64.76
978.8  44877.90  29214.90  65.10
979.7  45104.10  29348.23  65.07
981.4  47578.80  27924.88  58.69
985.3  47203.20  28120.87  59.57
989.3  47137.31  28470.17  60.40
993.3  47133.16  28864.37  61.24
997.2  47029.21  29197.70  62.08
1001.2  46955.35  29569.58  62.97
1005.2  46914.32  29990.83  63.93
1009.1  47038.13  30537.39  64.92
1013.1  47236.75  31158.67  65.96
1017.1  47375.30  31780.08  67.08
1021.0  47429.61  32348.65  68.20
1025.0  47461.87  32915.18  69.35
1029.0  47354.18  33378.06  70.49
1032.9  47271.77  33827.73  71.56
1036.9  47308.70  34360.80  72.63
1040.9  47476.08  34952.43  73.62
1044.8  47747.63  35560.61  74.48
1048.8  47970.59  36091.74  75.24
1052.7  48104.60  36545.48  75.97
1056.7  48183.46  36873.79  76.53
1060.7  48250.82  37117.70  76.93
1064.6  48272.17  37296.46  77.26
1068.6  48190.54  37330.34  77.46
1072.5  48116.11  37274.87  77.47
1076.5  48076.67  37197.94  77.37
1080.4  48048.88  37089.68  77.19
1084.4  48150.59  36965.89  76.77
1088.3  48279.53  36802.84  76.23
1092.3  48252.92  36490.38  75.62
1096.2  48221.83  36113.32  74.89
1100.2  48245.69  35754.71  74.11
1104.1  48124.97  35276.63  73.30
1108.1  48059.38  34836.65  72.49
1112.0  47955.87  34349.55  71.63
1116.0  47754.46  33747.44  70.67
1119.9  47569.76  33080.53  69.54
1123.9  47623.80  32421.54  68.08
1127.8  47592.96  31438.08  66.06
1131.8  47556.42  30165.04  63.43
1135.7  47568.82  28706.59  60.35
1139.6  47554.30  27134.72  57.06
1143.6  47510.71  25632.45  53.95
1147.5  47481.98  24361.75  51.31
1151.4  47337.52  23314.98  49.25
1155.4  47322.86  22629.27  47.82
1159.3  47329.81  22191.72  46.89
1163.2  47159.49  21831.57  46.29
1167.2  47113.86  21644.74  45.94
1171.1  47117.13  21524.50  45.68
1175.0  47022.16  21387.73  45.48
1179.0  46962.63  21274.92  45.30
1182.9  47045.30  21214.66  45.09
1186.8  47019.62  21121.43  44.92
1190.7  46784.64  20947.50  44.77
1194.7  46508.35  20780.87  44.68
1198.6  46264.68  20666.42  44.67
1202.5  46100.54  20607.71  44.70
1206.4  45962.62  20577.57  44.77
1210.3  45829.98  20585.73  44.92
1214.2  45707.13  20625.63  45.13
1218.2  45554.16  20674.33  45.38
1222.1  45384.95  20741.67  45.70
1226.0  45257.55  20823.83  46.01
1229.9  45156.00  20905.32  46.30
1233.8  45033.17  20963.09  46.55
1237.7  44950.68  21026.98  46.78
1241.6  44841.64  21084.85  47.02
1245.5  44683.61  21106.72  47.24
1249.4  44538.65  21122.74  47.43
1253.3  44401.40  21131.36  47.59
1257.2  44324.52  21144.47  47.70
1261.1  44209.48  21115.73  47.76
1265.0  44086.55  21046.71  47.74
1268.9  43910.05  20925.53  47.66
1272.8  43969.80  20907.60  47.55
1276.7  44155.69  20922.84  47.38
1280.6  44249.88  20841.06  47.10
1284.5  44188.89  20655.90  46.74
1288.4  44167.03  20472.74  46.35
1292.3  44060.50  20200.58  45.85
1296.2  43934.23  19874.62  45.24
1300.1  43787.98  19499.41  44.53
1303.9  43564.57  19064.84  43.76
1307.8  43339.22  18597.59  42.91
1311.7  43109.06  18087.77  41.96
1315.6  42877.90  17559.98  40.95
1319.5  42633.84  16998.90  39.87
1323.3  42417.44  16444.87  38.77
1327.2  42218.70  15903.10  37.67
1331.1  42002.86  15356.15  36.56
1335.0  41739.72  14806.40  35.47
1338.8  41543.11  14310.44  34.45
1342.7  41389.31  13859.14  33.48
1346.5  41042.00  13362.03  32.56
1350.4  40741.74  12915.87  31.70
1354.3  40332.24  12469.13  30.92
1358.1  39895.31  12044.17  30.19
1362.0  39644.33  11681.73  29.47
1365.8  39567.12  11349.85  28.69
1369.7  39683.68  11017.93  27.76
1373.5  39615.26  10557.84  26.65
1377.4  39354.79  10005.54  25.42
1381.2  39167.92  9411.99  24.03
1385.1  39160.09  8793.58  22.46
1389.0  39060.88  8155.95  20.88
1392.8  38834.72  7530.01  19.39
1396.6  38680.88  6981.43  18.05
1400.5  38476.57  6502.98  16.90
1404.3  38299.58  6108.00  15.95
1408.2  38263.03  5804.01  15.17
1412.0  38218.70  5561.63  14.55
1415.8  38249.29  5389.85  14.09
1419.6  38208.11  5245.27  13.73
1423.5  38172.20  5138.61  13.46
1427.3  38125.77  5056.32  13.26
1431.1  38099.78  5001.85  13.13
1434.9  38010.73  4956.48  13.04
1438.8  37949.80  4922.46  12.97
1442.6  37913.52  4896.81  12.92
1446.4  37795.09  4872.77  12.89
1450.2  37700.99  4859.50  12.89
1454.0  37583.52  4843.48  12.89
1457.8  37547.69  4849.07  12.91
1461.6  37527.24  4864.43  12.96
1465.4  37404.28  4880.37  13.05
1469.2  37216.73  4903.39  13.18
1473.0  37080.95  4944.13  13.33
1476.8  37019.78  5010.84  13.54
1480.7  36949.43  5089.01  13.77
1484.4  36826.56  5172.56  14.05
1488.2  36723.96  5278.20  14.37
1492.0  36584.11  5392.41  14.74
1495.8  36452.33  5490.34  15.06
1499.6  36350.05  5570.63  15.32
1503.4  36216.75  5637.63  15.57
1507.2  36087.28  5697.50  15.79
1510.9  35929.91  5743.48  15.99
1514.7  35749.31  5781.89  16.17
1518.5  35615.65  5825.60  16.36
1522.3  35466.30  5859.33  16.52
1526.0  35355.47  5898.53  16.68
1529.8  35294.61  5971.80  16.92
1533.6  35159.29  6045.11  17.19
1537.3  35020.99  6099.34  17.42
1541.1  34889.16  6139.66  17.60
1544.8  34754.40  6194.40  17.82
1548.6  34607.98  6252.00  18.07
1552.4  34514.76  6314.82  18.30
1556.1  34455.77  6395.34  18.56
1559.9  34373.05  6480.56  18.85
1563.6  34243.93  6557.01  19.15
1567.3  34122.03  6627.47  19.42
1571.1  33904.82  6683.21  19.71
1574.8  33749.79  6757.60  20.02
1578.6  33637.37  6824.91  20.29
1582.3  33496.17  6862.80  20.49
1586.0  33359.51  6890.10  20.65
1589.8  33217.24  6915.65  20.82
1593.5  33051.52  6936.98  20.99
1597.2  32917.71  6962.10  21.15
1600.9  32767.31  6987.12  21.32
1604.7  32613.52  7012.76  21.50
1608.4  32493.03  7045.57  21.68
1612.1  32320.35  7058.41  21.84
1615.8  32161.00  7072.04  21.99
1619.5  32072.28  7107.09  22.16
1623.2  31915.49  7126.13  22.33
1626.9  31725.78  7130.37  22.48
1630.6  31537.44  7132.55  22.62
1634.3  31397.73  7137.13  22.73
1638.0  31241.74  7142.99  22.86
1641.7  31050.65  7148.35  23.02
1645.4  30870.63  7136.52  23.12
1649.1  30683.95  7117.60  23.20
1652.8  30504.58  7107.95  23.30
1656.4  30322.32  7084.58  23.36
1660.1  30158.02  7060.02  23.41
1663.8  29966.42  7029.04  23.46
1667.5  29809.99  6999.32  23.48
1671.1  29676.54  6963.61  23.47
1674.8  29472.79  6908.79  23.44
1678.5  29413.48  6878.57  23.39
1682.1  29419.35  6846.64  23.27
1685.8  29417.21  6806.44  23.14
1689.5  29310.65  6748.73  23.02
1693.1  29167.59  6682.61  22.91
1696.8  29020.13  6606.46  22.77
1700.4  28874.60  6521.92  22.59
1704.0  28754.23  6442.45  22.41
1707.7  28493.62  6330.59  22.22
1711.3  28200.13  6205.98  22.01
1715.0  27991.44  6097.85  21.78
1718.6  27822.35  5994.00  21.54
1722.2  27677.55  5898.80  21.31
1725.9  27527.50  5808.89  21.10
1729.5  27386.37  5735.14  20.94
1733.1  27262.24  5688.03  20.86
1736.7  27144.69  5650.45  20.82
1740.3  26982.07  5591.53  20.72
1744.0  26899.89  5541.15  20.60
1747.5  26760.07  5470.61  20.44
1751.2  26551.35  5376.05  20.25
1754.8  26397.18  5293.11  20.05
1758.4  26262.14  5222.55  19.89
1762.0  26085.49  5149.09  19.74
1765.5  25956.49  5091.76  19.62
1769.1  25915.20  5063.20  19.54
1772.7  25841.75  5026.00  19.45
1776.3  25724.16  4975.12  19.34
1779.9  25608.69  4929.34  19.25
1783.5  25553.92  4894.69  19.15
1787.0  25434.82  4852.22  19.08
1790.6  25293.30  4808.57  19.01
1794.2  25193.03  4776.59  18.96
1797.8  25095.48  4754.80  18.95
1801.3  25012.46  4739.43  18.95
1804.9  24871.88  4707.50  18.93
1808.4  24792.34  4684.98  18.90
1812.0  24660.35  4653.51  18.87
1815.5  24519.60  4622.21  18.85
1819.1  24324.68  4581.30  18.83
1822.6  24164.48  4548.34  18.82
1826.2  24042.90  4509.69  18.76
1829.7  23859.90  4454.97  18.67
1833.2  23612.46  4393.83  18.61
1836.8  23400.20  4340.10  18.55
1840.3  23257.80  4290.21  18.45
1843.8  23131.92  4225.76  18.27
1847.3  23013.03  4170.51  18.12
1850.8  22865.47  4103.23  17.95
1854.3  22692.74  4010.84  17.67
1857.8  22594.00  3927.73  17.38
1861.3  22615.25  3844.47  17.00
1864.8  22605.64  3750.87  16.59
1868.3  22468.36  3608.85  16.06
1871.8  22341.12  3443.20  15.41
1875.3  22323.21  3253.86  14.58
1878.8  22320.32  3062.67  13.72
1882.3  22237.89  2895.60  13.02
1885.8  22045.10  2722.51  12.35
1889.3  21861.76  2557.91  11.70
1892.7  21710.01  2440.75  11.24
1896.2  21503.16  2360.30  10.98
1899.7  21232.37  2315.46  10.91
1901.7  20074.51  1306.95  6.51
1904.5  20223.67  1322.50  6.54
1907.2  20168.50  1328.42  6.59
1910.0  20030.00  1268.18  6.33
1912.7  20048.69  1274.39  6.36
1915.5  19979.54  1294.59  6.48
1918.2  19877.64  1282.24  6.45
1921.0  19705.09  1272.19  6.46
1923.7  19733.20  1282.87  6.50
1926.5  19715.86  1279.87  6.49
1929.2  19701.76  1284.81  6.52
1932.0  19674.16  1289.28  6.55
1934.7  19635.47  1286.10  6.55
1937.4  19518.79  1286.16  6.59
1940.2  19475.71  1282.60  6.59
1942.9  19573.26  1300.22  6.64
1945.6  19572.62  1312.69  6.71
1948.3  19494.00  1311.63  6.73
1951.1  19465.67  1324.40  6.80
1953.8  19476.00  1331.00  6.83
1956.5  19368.67  1340.76  6.92
1959.2  19423.04  1344.50  6.92
1961.9  19438.54  1348.95  6.94
1964.6  19331.55  1370.48  7.09
1967.3  19375.30  1388.40  7.17
1970.0  19228.16  1384.29  7.20
1972.8  19159.08  1396.31  7.29
1975.5  19219.42  1414.56  7.36
1978.2  19120.16  1417.17  7.41
1980.9  19002.89  1434.18  7.55
1983.5  18950.70  1438.66  7.59
1986.2  18944.10  1447.24  7.64
1988.9  18909.18  1466.64  7.76
1991.6  18787.78  1464.75  7.80
1994.3  18678.85  1459.57  7.81
1997.0  18669.58  1484.92  7.95
1999.7  18631.37  1505.71  8.08
2002.3  18617.79  1505.45  8.09
2005.0  18540.12  1516.00  8.18
2007.7  18469.93  1532.71  8.30
2010.4  18400.48  1532.18  8.33
2013.0  18316.11  1553.37  8.48
2015.7  18226.45  1559.13  8.55
2018.4  18129.14  1541.26  8.50
2021.0  18062.50  1561.16  8.64
2023.7  17946.51  1569.74  8.75
2026.4  17902.73  1569.82  8.77
2029.0  17806.29  1575.47  8.85
2031.7  17677.40  1578.27  8.93
2034.3  17722.47  1593.29  8.99
2037.0  17610.64  1602.68  9.10
2039.6  17527.07  1607.35  9.17
2042.3  17481.88  1591.39  9.10
2044.9  17393.81  1601.66  9.21
2047.5  17348.93  1607.27  9.26
2050.2  17253.60  1597.87  9.26
2052.8  17214.40  1614.67  9.38
2055.4  17090.17  1609.09  9.42
2058.1  16973.60  1601.60  9.44
2060.7  16918.14  1621.10  9.58
2063.3  16842.61  1617.20  9.60
2065.9  16794.67  1607.07  9.57
2068.6  16710.92  1626.61  9.73
2071.2  16664.67  1624.71  9.75
2073.8  16591.32  1620.24  9.77
2076.4  16536.88  1639.09  9.91
2079.0  16525.61  1655.09  10.02
2081.6  16519.89  1654.24  10.01
2084.2  16487.00  1652.56  10.02
2086.8  16353.42  1656.46  10.13
2089.4  16268.28  1648.10  10.13
2092.1  16209.50  1650.89  10.18
2094.7  16113.80  1677.11  10.41
2097.2  16087.67  1667.89  10.37
2099.8  16089.36  1677.63  10.43
2102.4  15953.94  1684.20  10.56
2105.0  15826.05  1668.20  10.54
2107.6  15774.07  1679.57  10.65
2110.2  15742.83  1675.64  10.64
2112.8  15734.02  1677.91  10.66
2115.3  15735.22  1694.47  10.77
2117.9  15738.64  1702.31  10.82
2120.5  15682.70  1712.08  10.92
2123.1  15604.88  1720.88  11.03
2125.6  15567.02  1708.19  10.97
2128.2  15487.92  1702.34  10.99
2130.8  15394.28  1715.03  11.14
2133.3  15347.20  1706.22  11.12
2135.9  15264.31  1702.25  11.15
2138.4  15119.35  1706.12  11.28
2141.0  15032.51  1697.38  11.29
2143.6  14998.41  1696.46  11.31
2146.1  14847.40  1695.42  11.42
2148.7  14686.27  1681.73  11.45
2151.2  14704.80  1684.71  11.46
2153.8  14713.72  1690.45  11.49
2156.3  14589.47  1691.27  11.59
2158.8  14533.35  1692.26  11.64
2161.4  14517.59  1699.22  11.70
2163.9  14426.20  1694.31  11.74
2166.4  14354.62  1675.44  11.67
2169.0  14310.27  1667.56  11.65
2171.5  14227.48  1659.68  11.67
2174.0  14143.15  1656.09  11.71
2176.5  14124.76  1672.41  11.84
2179.1  14082.55  1659.43  11.78
2181.6  13967.33  1635.40  11.71
2184.1  13937.00  1658.07  11.90
2186.6  13993.83  1671.68  11.95
2189.1  13896.09  1648.87  11.87
2191.6  13840.87  1652.93  11.94
2194.1  13877.92  1656.41  11.94
2196.6  13844.81  1640.59  11.85
2199.2  13897.52  1663.94  11.97
2201.7  13871.80  1664.28  12.00
2204.1  13802.39  1655.36  11.99
2206.6  13786.08  1656.12  12.01
2209.1  13743.34  1651.52  12.02
2211.6  13738.26  1660.98  12.09
2214.1  13693.60  1658.80  12.11
2216.6  13643.61  1633.28  11.97
2219.1  13655.01  1634.55  11.97
2221.6  13597.41  1649.56  12.13
2224.0  13563.60  1624.33  11.98
2226.5  13534.39  1601.91  11.84
2229.0  13551.73  1607.68  11.86
2231.5  13416.49  1590.73  11.86
2233.9  13376.81  1566.27  11.71
2236.4  13409.64  1576.17  11.75
2238.9  13341.63  1555.17  11.66
2241.3  13300.17  1517.10  11.41
2243.8  13261.31  1515.80  11.43
2246.2  13153.53  1486.05  11.30
2248.7  13089.53  1459.11  11.15
2251.2  13067.33  1454.06  11.13
2253.6  13017.60  1441.28  11.07
2256.1  12979.20  1432.32  11.04
2258.5  12980.99  1420.14  10.94
2260.9  12912.45  1401.06  10.85
2263.4  12850.74  1383.08  10.76
2265.8  12840.17  1382.24  10.76
2268.3  12768.77  1362.31  10.67
2270.7  12812.36  1335.74  10.43
2273.1  12778.22  1328.19  10.39
2275.6  12710.40  1326.08  10.43
2278.0  12729.12  1319.54  10.37
2280.4  12680.26  1318.69  10.40
2282.8  12544.20  1290.56  10.29
2285.3  12570.98  1262.41  10.04
2287.7  12679.54  1270.43  10.02
2290.1  12579.51  1270.34  10.10
2292.5  12520.09  1239.44  9.90
2294.9  12538.64  1238.19  9.87
2297.3  12458.25  1224.73  9.83
2299.7  12334.59  1188.45  9.64
2302.1  12311.40  1168.02  9.49
2304.5  12214.72  1142.03  9.35
2306.9  12089.28  1113.28  9.21
2309.3  11994.02  1116.72  9.31
2311.7  11939.85  1100.31  9.22
2314.1  11791.37  1075.16  9.12
2316.5  11721.50  1109.77  9.47
2318.9  11765.88  1112.87  9.46
2321.3  11730.50  1094.74  9.33
2323.7  11744.39  1112.81  9.48
2326.1  11719.24  1120.34  9.56
2328.4  11761.55  1113.37  9.47
2330.8  11807.83  1115.21  9.44
2333.2  11712.54  1094.11  9.34
2335.6  11662.03  1061.44  9.10
2337.9  11681.16  1073.94  9.19
2340.3  11629.38  1070.58  9.21
2342.7  11548.22  1028.30  8.90
2345.0  11508.47  1029.11  8.94
2347.4  11492.00  1024.25  8.91
2349.7  11315.65  979.64  8.66
2352.1  11286.89  996.33  8.83
2354.4  11296.02  1010.11  8.94
2356.8  11214.70  984.20  8.78
2359.2  11154.00  975.00  8.74
2361.5  11109.05  977.39  8.80
2363.8  11141.66  967.63  8.68
2366.2  11165.73  982.70  8.80
2368.5  11089.40  979.00  8.83
2370.9  11067.03  948.35  8.57
2373.2  11030.32  959.29  8.70
2375.5  10914.30  929.14  8.51
2377.9  10876.18  911.67  8.38
2380.2  10876.88  928.55  8.54
2382.5  10821.23  925.13  8.55
2384.8  10769.44  904.80  8.40
2387.2  10736.28  889.22  8.28
2389.5  10704.02  887.67  8.29
2391.8  10661.73  873.03  8.19
2394.1  10613.91  881.29  8.30
2396.4  10610.47  872.51  8.22
2398.7  10654.34  873.65  8.20
2401.0  10513.07  878.56  8.36
2403.3  10428.12  830.00  7.96
2405.6  10456.51  828.06  7.92
2407.9  10375.71  855.04  8.24
2410.2  10317.44  842.24  8.16
2412.5  10224.31  809.68  7.92
2414.8  10187.84  814.76  8.00
2417.1  10204.62  805.22  7.89
2419.4  10195.97  776.29  7.61
2421.7  10103.31  792.01  7.84
2424.0  10048.90  803.07  7.99
2426.2  10074.05  775.75  7.70
2428.5  10032.46  780.60  7.78
2430.8  10006.20  772.08  7.72
2433.1  9945.94  750.46  7.55
2435.4  9886.37  773.98  7.83
2437.6  9830.42  736.68  7.49
2439.9  9708.34  714.98  7.36
2442.2  9709.99  743.28  7.65
2444.4  9752.18  704.52  7.22
2446.7  9688.56  685.23  7.07
2448.9  9658.24  720.47  7.46
2451.2  9631.36  709.24  7.36
2453.4  9564.32  668.96  6.99
2455.7  9566.46  699.39  7.31
2457.9  9468.86  698.01  7.37
2460.2  9395.46  667.88  7.11
2462.4  9422.40  659.36  7.00
2464.7  9348.95  651.86  6.97
2466.9  9251.22  652.70  7.06
2469.2  9249.34  650.33  7.03
2471.4  9151.61  647.75  7.08
2473.6  9078.42  624.87  6.88
2475.9  9042.40  632.18  6.99
2478.1  8956.32  626.24  6.99
2480.3  8952.70  598.70  6.69
2482.5  8971.16  621.91  6.93
2484.8  8832.66  614.09  6.95
2487.0  8762.09  595.00  6.79
2489.2  8850.00  603.07  6.81
2491.4  8753.22  566.13  6.47
2493.6  8669.20  561.75  6.48
2495.8  8662.66  636.11  7.34
2498.0  8674.13  629.62  7.26
2500.2  8694.60  570.10  6.56
2502.4  8942.16  600.88  6.72
2504.6  9089.52  610.35  6.71
2506.8  9176.65  571.51  6.23
