/*** Spectra Vista SIG Data ***/
name= RS5.sig
comm= Resampled spectral data SIG file reprocesed for matching/overlap;Averaged Ref/Tar of files: RD5S13,RD5S14,RD5S15
data=
346.0  366.28  120.61  32.93
356.0  580.02  136.09  23.46
366.0  764.64  146.46  19.15
376.0  1054.72  160.42  15.21
386.0  1321.48  160.71  12.16
396.0  1668.03  206.79  12.40
406.0  2032.56  196.03  9.64
416.0  2484.09  238.73  9.61
426.0  2825.64  246.65  8.73
436.0  3449.00  278.81  8.08
446.0  4016.12  321.24  8.00
456.0  4559.32  342.88  7.52
466.0  5430.31  410.91  7.57
476.0  6200.82  461.41  7.44
486.0  6683.18  483.15  7.23
496.0  7759.25  592.59  7.64
506.0  8620.16  771.11  8.95
516.0  8958.85  1011.74  11.29
526.0  9944.82  1433.82  14.42
536.0  11306.85  1949.25  17.24
546.0  12443.50  2375.80  19.09
556.0  12537.38  2584.31  20.61
566.0  13373.89  2999.03  22.42
576.0  14717.24  3653.73  24.83
586.0  15778.76  4377.93  27.75
596.0  16643.71  5087.68  30.57
606.0  16939.11  5705.94  33.68
616.0  18066.83  6646.26  36.79
626.0  19907.23  7523.46  37.79
636.0  19564.29  8033.20  41.06
646.0  19659.63  8093.02  41.17
656.0  19192.34  7868.27  41.00
666.0  20282.32  7650.25  37.72
676.0  21596.49  8170.62  37.83
686.0  23461.59  11545.64  49.21
696.0  24117.97  15362.95  63.70
706.0  24329.51  16980.65  69.79
716.0  23886.32  17255.07  72.24
726.0  23086.04  16960.73  73.47
736.0  22569.89  16751.83  74.22
746.0  23814.03  18059.15  75.83
756.0  24266.56  18395.24  75.80
766.0  25278.75  19585.90  77.48
776.0  25925.56  20357.19  78.52
786.0  26060.85  20845.51  79.99
796.0  25580.60  20391.30  79.71
806.0  24835.91  20006.68  80.56
816.0  24700.16  20038.37  81.13
826.0  24523.61  19774.50  80.63
836.0  24895.68  19902.35  79.94
846.0  25503.02  20498.95  80.38
856.0  25926.24  20761.96  80.08
866.0  26083.86  20888.79  80.08
876.0  26142.33  20902.76  79.96
886.0  26278.55  20731.73  78.89
896.0  26059.51  20250.46  77.71
906.0  26042.54  19955.19  76.63
916.0  25872.97  19440.85  75.14
926.0  25848.12  18759.05  72.57
936.0  26639.41  18261.83  68.55
946.0  27323.34  17560.85  64.27
956.0  27983.10  16520.20  59.04
966.0  28580.08  16190.89  56.65
976.0  29061.46  16289.94  56.05
986.0  29600.63  15925.90  53.80
996.0  29854.54  16771.05  56.18
1006.0  29773.67  17289.98  58.07
1016.0  29961.72  17988.18  60.04
1026.0  29958.18  18603.81  62.10
1036.0  29727.72  19028.16  64.01
1046.0  29945.01  19701.11  65.79
1056.0  30102.43  20239.66  67.24
1066.0  30105.99  20479.47  68.02
1076.0  29996.46  20417.60  68.07
1086.0  30084.70  20285.99  67.43
1096.0  30105.40  19939.82  66.23
1106.0  30068.25  19448.60  64.68
1116.0  29868.35  18778.24  62.87
1126.0  29809.45  17826.74  59.80
1136.0  29822.39  16172.55  54.23
1146.0  29809.91  14198.45  47.63
1156.0  29735.93  13014.18  43.77
1166.0  29672.84  12582.52  42.40
1176.0  29648.36  12405.95  41.84
1186.0  29704.47  12281.62  41.35
1196.0  29371.18  12020.47  40.93
1206.0  29121.56  11939.18  41.00
1216.0  28966.90  11983.50  41.37
1226.0  28785.60  12085.67  41.99
1236.0  28657.09  12216.08  42.63
1246.0  28484.90  12278.41  43.10
1256.0  28333.73  12319.51  43.48
1266.0  28154.79  12261.83  43.55
1276.0  28214.44  12237.60  43.37
1286.0  28244.54  12050.64  42.67
1296.0  28080.90  11632.27  41.42
1306.0  27749.33  11004.97  39.66
1316.0  27339.86  10226.38  37.40
1326.0  26940.91  9347.89  34.70
1336.0  26516.39  8466.14  31.93
1346.0  26100.07  7676.87  29.41
1356.0  25456.23  6960.51  27.34
1366.0  25028.25  6322.62  25.26
1376.0  24975.46  5627.36  22.53
1386.0  24740.24  4491.46  18.15
1396.0  24477.47  3448.90  14.09
1406.0  24216.63  2766.65  11.42
1416.0  24200.46  2439.26  10.08
1426.0  24158.30  2278.38  9.43
1436.0  24072.41  2201.94  9.15
1446.0  23956.60  2159.31  9.01
1456.0  23813.94  2137.29  8.97
1466.0  23700.42  2149.19  9.07
1476.0  23484.85  2196.71  9.35
1486.0  23331.72  2307.16  9.89
1496.0  23130.98  2451.01  10.60
1506.0  22945.06  2547.57  11.10
1516.0  22702.48  2629.07  11.58
1526.0  22502.83  2728.63  12.13
1536.0  22328.41  2844.75  12.74
1546.0  22104.85  2961.83  13.40
1556.0  21942.04  3076.57  14.02
1566.0  21758.45  3162.52  14.53
1576.0  21478.18  3287.01  15.30
1586.0  21278.88  3373.57  15.85
1596.0  21035.80  3423.94  16.28
1606.0  20794.20  3472.74  16.70
1616.0  20552.01  3535.40  17.20
1626.0  20323.44  3596.42  17.70
1636.0  20065.83  3625.30  18.07
1646.0  19774.62  3617.03  18.29
1656.0  19480.49  3582.56  18.39
1666.0  19194.30  3542.29  18.45
1676.0  18944.19  3503.15  18.49
1686.0  18931.40  3471.66  18.34
1696.0  18711.77  3391.44  18.12
1706.0  18450.64  3277.05  17.76
1716.0  18035.90  3114.91  17.27
1726.0  17776.34  2967.58  16.69
1736.0  17557.88  2858.94  16.28
1746.0  17326.38  2743.93  15.84
1756.0  17015.40  2595.32  15.25
1766.0  16759.66  2479.09  14.79
1776.0  16615.26  2404.42  14.47
1786.0  16444.78  2337.72  14.22
1796.0  16217.15  2290.19  14.12
1806.0  16004.96  2258.70  14.11
1816.0  15766.24  2219.69  14.08
1826.0  15451.08  2170.37  14.05
1836.0  15063.08  2086.71  13.85
1846.0  14855.31  2053.33  13.82
1856.0  14691.59  1989.72  13.54
1866.0  14522.35  1713.24  11.80
1876.0  14253.69  1289.14  9.04
1886.0  14110.56  1075.17  7.62
1896.0  13808.32  986.62  7.15
1906.0  12793.00  1248.30  9.76
1916.0  12616.65  1196.37  9.48
1926.0  12521.17  1167.62  9.33
1936.0  12420.38  1164.70  9.38
1946.0  12399.95  1174.55  9.47
1956.0  12267.23  1175.06  9.58
1966.0  12255.75  1199.96  9.79
1976.0  12167.54  1210.16  9.95
1986.0  11984.38  1208.78  10.09
1996.0  11804.14  1214.84  10.29
2006.0  11722.12  1236.75  10.55
2016.0  11520.71  1243.57  10.79
2026.0  11331.47  1234.91  10.90
2036.0  11153.81  1240.61  11.12
2046.0  11015.78  1253.69  11.38
2056.0  10803.98  1253.01  11.60
2066.0  10617.95  1242.36  11.70
2076.0  10467.51  1256.88  12.01
2086.0  10367.19  1259.85  12.15
2096.0  10196.33  1243.65  12.20
2106.0  9977.58  1240.42  12.43
2116.0  9951.76  1259.91  12.66
2126.0  9831.36  1273.19  12.95
2136.0  9625.43  1254.02  13.03
2146.0  9388.88  1239.55  13.20
2156.0  9207.43  1227.02  13.33
2166.0  9064.45  1188.94  13.12
2176.0  8911.97  1189.83  13.35
2186.0  8812.47  1166.19  13.23
2196.0  8746.91  1145.98  13.10
2206.0  8717.01  1154.63  13.25
2216.0  8632.54  1131.94  13.11
2226.0  8558.94  1113.13  13.01
2236.0  8436.18  1085.01  12.86
2246.0  8282.68  1047.90  12.65
2256.0  8199.17  993.79  12.12
2266.0  8120.13  951.96  11.72
2276.0  8038.92  918.96  11.43
2286.0  7958.54  890.68  11.19
2296.0  7926.13  849.55  10.72
2306.0  7675.85  792.82  10.33
2316.0  7429.53  783.28  10.54
2326.0  7404.63  753.77  10.18
2336.0  7366.33  727.51  9.88
2346.0  7276.21  695.39  9.56
2356.0  7132.49  667.17  9.35
2366.0  7038.59  639.05  9.08
2376.0  6898.87  625.58  9.07
2386.0  6807.05  606.42  8.91
2396.0  6685.66  582.22  8.71
2406.0  6574.61  541.78  8.24
2416.0  6463.16  529.12  8.19
2426.0  6354.84  493.88  7.77
2436.0  6210.96  473.54  7.62
2446.0  6104.75  473.78  7.76
2456.0  6017.59  475.43  7.90
2466.0  5854.98  417.93  7.14
2476.0  5727.20  421.55  7.36
2486.0  5577.85  368.13  6.60
2496.0  5547.28  364.78  6.58
2506.0  5804.94  317.08  5.46
