/*** Spectra Vista SIG Data ***/
name= RS5.sig
comm= SIG file reprocesed for matching/overlap;Averaged Ref/Tar of files: RD5S13,RD5S14,RD5S15
data=
346.4  366.28  120.61  32.93
347.9  400.03  118.81  29.70
349.5  432.12  121.89  28.21
351.1  468.00  115.65  24.71
352.6  496.51  126.92  25.56
354.2  520.33  124.79  23.98
355.7  575.84  135.60  23.55
357.3  598.14  138.24  23.11
358.8  616.87  140.73  22.81
360.4  668.33  144.92  21.68
361.9  686.05  144.41  21.05
363.5  715.01  144.50  20.21
365.1  743.78  146.56  19.70
366.6  778.54  146.39  18.80
368.2  824.27  156.24  18.95
369.7  873.39  147.14  16.85
371.3  928.49  148.38  15.98
372.8  977.74  157.59  16.12
374.4  1016.27  160.20  15.76
375.9  1052.58  160.20  15.22
377.4  1084.71  163.49  15.07
379.0  1129.79  165.07  14.61
380.5  1157.14  163.72  14.15
382.1  1186.43  163.12  13.75
383.6  1234.64  162.16  13.13
385.2  1293.88  159.13  12.30
386.7  1345.63  162.09  12.05
388.3  1410.38  165.59  11.74
389.8  1464.46  172.75  11.80
391.3  1527.57  179.35  11.74
392.9  1567.60  186.25  11.88
394.4  1609.87  195.07  12.12
395.9  1662.63  206.82  12.44
397.5  1749.05  206.29  11.79
399.0  1827.74  206.83  11.32
400.6  1876.29  200.36  10.68
402.1  1904.04  196.08  10.30
403.6  1943.17  195.32  10.05
405.1  1994.81  191.94  9.62
406.7  2061.92  199.21  9.66
408.2  2135.06  203.45  9.53
409.7  2198.56  205.78  9.36
411.3  2272.05  218.79  9.63
412.8  2335.64  223.73  9.58
414.3  2399.77  233.66  9.74
415.8  2475.00  238.67  9.64
417.4  2547.71  239.17  9.39
418.9  2612.23  241.53  9.25
420.4  2658.25  244.27  9.19
421.9  2705.56  244.26  9.03
423.5  2743.63  251.25  9.16
425.0  2788.02  245.73  8.81
426.5  2844.45  247.11  8.69
428.0  2917.63  248.49  8.52
429.5  3009.90  249.64  8.29
431.1  3112.45  257.22  8.26
432.6  3227.88  264.28  8.19
434.1  3329.29  272.07  8.17
435.6  3423.98  277.61  8.11
437.1  3517.80  282.10  8.02
438.6  3607.74  291.08  8.07
440.1  3694.39  295.26  7.99
441.6  3790.73  303.58  8.01
443.1  3873.83  309.42  7.99
444.7  3959.99  316.74  8.00
446.2  4024.76  321.93  8.00
447.7  4101.41  329.67  8.04
449.2  4174.20  330.34  7.91
450.7  4238.00  331.69  7.83
452.2  4313.18  329.07  7.63
453.7  4393.64  333.26  7.59
455.2  4491.99  338.90  7.54
456.7  4618.24  346.37  7.50
458.2  4761.06  356.26  7.48
459.7  4899.13  364.00  7.43
461.2  5044.37  376.06  7.46
462.7  5165.05  387.12  7.49
464.2  5287.79  399.92  7.56
465.7  5408.14  408.79  7.56
467.2  5518.98  419.39  7.60
468.7  5631.00  432.00  7.67
470.2  5705.20  444.85  7.80
471.7  5821.13  460.43  7.91
473.2  6011.22  459.56  7.65
474.6  6153.75  462.88  7.52
476.1  6204.18  461.31  7.44
477.6  6220.94  460.15  7.40
479.1  6250.52  462.39  7.40
480.6  6293.37  462.16  7.34
482.1  6374.96  463.42  7.27
483.6  6474.12  467.85  7.23
485.1  6599.29  475.07  7.20
486.6  6739.10  488.54  7.25
488.0  6898.13  497.90  7.22
489.5  7058.36  512.06  7.25
491.0  7224.81  530.84  7.35
492.5  7392.87  547.34  7.40
494.0  7557.79  563.75  7.46
495.4  7702.20  583.44  7.57
496.9  7844.83  606.32  7.73
498.4  7990.29  626.90  7.85
499.9  8131.50  651.96  8.02
501.4  8263.45  679.85  8.23
502.8  8392.79  706.64  8.42
504.3  8499.60  735.36  8.65
505.8  8611.18  767.06  8.91
507.2  8674.01  795.41  9.17
508.7  8728.20  831.04  9.52
510.2  8764.92  863.69  9.85
511.6  8789.76  893.99  10.17
513.1  8840.43  932.26  10.55
514.6  8904.34  968.15  10.87
516.0  8958.85  1011.74  11.29
517.5  9056.55  1056.91  11.67
519.0  9171.31  1113.82  12.14
520.5  9287.32  1169.43  12.59
521.9  9437.16  1234.10  13.08
523.4  9612.27  1304.07  13.57
524.8  9785.79  1373.67  14.04
526.3  9984.58  1448.86  14.51
527.8  10184.06  1525.72  14.98
529.2  10366.76  1600.03  15.43
530.7  10567.61  1676.15  15.86
532.1  10746.40  1746.74  16.25
533.6  10959.02  1821.11  16.62
535.0  11168.56  1897.90  16.99
536.5  11376.00  1974.92  17.36
538.0  11592.92  2050.74  17.69
539.4  11785.91  2126.38  18.04
540.9  12037.93  2201.78  18.29
542.3  12246.63  2265.90  18.50
543.8  12400.56  2316.09  18.68
545.2  12445.48  2356.38  18.93
546.6  12442.01  2390.36  19.21
548.1  12455.19  2423.99  19.46
549.5  12460.55  2453.23  19.69
551.0  12456.77  2480.58  19.91
552.4  12484.13  2505.82  20.07
553.9  12491.52  2535.59  20.30
555.3  12509.64  2566.51  20.52
556.8  12569.08  2604.65  20.72
558.2  12630.94  2647.35  20.96
559.6  12713.51  2692.25  21.18
561.1  12831.00  2746.47  21.40
562.5  12959.42  2808.86  21.67
564.0  13129.35  2885.55  21.98
565.4  13288.41  2962.38  22.29
566.8  13487.87  3047.89  22.60
568.3  13678.39  3139.55  22.95
569.7  13879.32  3231.25  23.28
571.1  14074.77  3324.50  23.62
572.6  14269.77  3420.14  23.97
574.0  14463.08  3517.14  24.32
575.4  14650.03  3615.08  24.68
576.9  14818.07  3711.71  25.05
578.3  14977.46  3810.24  25.44
579.7  15131.24  3913.56  25.86
581.1  15254.19  4014.19  26.32
582.6  15387.18  4118.62  26.77
584.0  15508.86  4216.82  27.19
585.4  15681.05  4324.72  27.58
586.8  15909.04  4448.88  27.96
588.3  16162.38  4575.79  28.31
589.7  16371.81  4692.48  28.66
591.1  16519.39  4793.45  29.02
592.5  16589.78  4890.62  29.48
594.0  16627.80  4976.65  29.93
595.4  16637.76  5052.95  30.37
596.8  16651.64  5133.99  30.83
598.2  16659.51  5208.61  31.27
599.6  16659.36  5278.77  31.69
601.0  16705.59  5368.28  32.13
602.4  16752.94  5454.95  32.56
603.9  16822.23  5552.06  33.00
605.3  16905.11  5655.47  33.45
606.7  16973.10  5756.40  33.91
608.1  17114.04  5883.03  34.38
609.5  17255.15  6017.04  34.87
610.9  17434.91  6160.64  35.34
612.3  17598.49  6292.95  35.76
613.7  17818.60  6443.67  36.16
615.1  17967.42  6570.50  36.57
616.5  18122.06  6688.35  36.91
617.9  18356.64  6846.31  37.30
619.3  18578.68  7004.01  37.70
620.7  18848.67  7181.80  38.10
622.1  19119.58  7283.97  38.10
623.5  19414.06  7364.97  37.94
624.9  19741.18  7466.13  37.82
626.3  19952.52  7539.09  37.79
627.7  19741.37  7508.39  38.03
629.1  19544.02  7523.28  38.49
630.5  19457.12  7593.69  39.03
631.9  19461.81  7705.55  39.59
633.3  19457.49  7821.35  40.20
634.7  19533.17  7964.67  40.78
636.1  19566.68  8038.47  41.08
637.5  19597.55  8085.83  41.26
638.9  19677.50  8139.61  41.37
640.2  19731.43  8181.47  41.46
641.6  19754.28  8193.43  41.48
643.0  19715.36  8166.30  41.42
644.4  19707.26  8141.72  41.31
645.8  19650.11  8091.15  41.18
647.2  19716.78  8104.23  41.10
648.5  19765.84  8131.12  41.14
649.9  19671.60  8133.97  41.35
651.3  19608.23  8173.60  41.68
652.7  19503.68  8216.44  42.13
654.1  19390.95  8100.29  41.77
655.5  19238.75  7928.24  41.21
656.8  19118.09  7772.32  40.65
658.2  19225.93  7730.81  40.21
659.6  19449.31  7740.18  39.80
660.9  19643.18  7733.29  39.37
662.3  19825.21  7718.26  38.93
663.7  20008.80  7693.56  38.45
665.0  20165.89  7664.99  38.01
666.4  20328.89  7644.35  37.60
667.8  20535.62  7652.82  37.27
669.1  20711.76  7664.93  37.01
670.5  20914.18  7711.39  36.87
671.9  21055.86  7759.89  36.85
673.2  21237.33  7862.89  37.02
674.6  21400.77  7994.50  37.36
676.0  21596.49  8170.62  37.83
677.3  21793.24  8391.45  38.50
678.7  21992.69  8664.33  39.40
680.0  22269.19  9032.96  40.56
681.4  22542.00  9482.03  42.06
682.8  22829.63  10009.39  43.84
684.1  23112.18  10620.79  45.95
685.5  23364.31  11281.82  48.29
686.8  23617.23  11967.74  50.67
688.2  23841.32  12637.96  53.01
689.5  23927.84  13228.60  55.29
690.9  23997.39  13774.93  57.40
692.2  24047.78  14267.08  59.33
693.6  24110.83  14726.77  61.08
694.9  24095.99  15084.58  62.60
696.2  24121.97  15413.57  63.90
697.6  24149.95  15700.43  65.01
698.9  24174.48  15968.13  66.05
700.3  24215.57  16219.72  66.98
701.6  24264.40  16456.42  67.82
703.0  24323.35  16667.52  68.52
704.3  24329.34  16817.00  69.12
705.6  24327.41  16947.20  69.66
707.0  24334.75  17064.28  70.12
708.3  24282.08  17124.24  70.52
709.6  24223.21  17174.80  70.90
711.0  24124.28  17171.23  71.18
712.3  24015.02  17172.10  71.51
713.6  23977.17  17207.62  71.77
714.9  23907.38  17227.53  72.06
716.3  23880.58  17262.58  72.29
717.6  23876.83  17322.75  72.55
718.9  23805.06  17303.55  72.69
720.2  23675.16  17223.62  72.75
721.6  23576.15  17179.74  72.87
722.9  23446.45  17122.45  73.03
724.2  23274.82  17037.59  73.20
725.5  23133.68  16989.11  73.44
726.8  23009.81  16915.31  73.51
728.1  22933.91  16873.03  73.57
729.5  22856.87  16839.22  73.67
730.8  22796.53  16814.82  73.76
732.1  22719.29  16785.02  73.88
733.4  22660.56  16768.74  74.00
734.7  22602.67  16743.03  74.08
736.0  22569.89  16751.83  74.22
737.3  22520.76  16752.45  74.39
738.6  22554.56  16816.80  74.56
739.9  22633.16  16936.54  74.83
741.2  22698.59  17017.00  74.97
742.5  22841.25  17183.18  75.23
743.8  23091.34  17437.81  75.52
745.1  23491.07  17793.04  75.74
746.4  23957.57  18177.43  75.87
747.7  24466.55  18550.05  75.82
749.0  24948.63  18901.62  75.76
750.3  25229.30  19050.82  75.51
751.6  25175.69  18969.40  75.35
752.9  24925.64  18776.93  75.33
754.2  24630.59  18587.35  75.46
755.4  24314.44  18397.35  75.66
756.7  24210.69  18392.78  75.97
758.0  24235.24  18470.70  76.21
759.3  24394.18  18668.09  76.53
760.6  24621.52  18911.61  76.81
761.9  24823.09  19127.32  77.05
763.1  24955.30  19274.22  77.23
764.4  25125.21  19431.49  77.34
765.7  25257.38  19560.23  77.44
767.0  25349.99  19671.45  77.60
768.2  25431.84  19779.20  77.77
769.5  25509.93  19876.64  77.92
770.8  25646.87  20002.09  77.99
772.0  25674.66  20072.73  78.18
773.3  25762.96  20167.37  78.28
774.6  25839.71  20273.18  78.46
775.8  25921.43  20348.45  78.50
777.1  25948.26  20405.23  78.64
778.4  25918.05  20412.15  78.76
779.6  25945.86  20466.39  78.88
780.9  25904.00  20486.40  79.09
782.1  25811.51  20456.98  79.26
783.4  25819.04  20498.26  79.39
784.6  25849.06  20570.25  79.58
785.9  26028.56  20816.31  79.97
787.1  26416.14  21166.80  80.13
788.4  26716.91  21389.95  80.06
789.6  26732.54  21279.87  79.60
790.9  26499.75  20994.02  79.22
792.1  26215.36  20792.05  79.31
793.4  25939.41  20633.31  79.54
794.6  25766.06  20507.97  79.59
795.8  25608.38  20406.98  79.69
797.1  25427.85  20305.07  79.85
798.3  25301.10  20267.50  80.11
799.5  25235.55  20228.24  80.16
800.8  25155.70  20195.03  80.28
802.0  25074.70  20157.39  80.39
803.2  24986.56  20088.08  80.40
804.5  24925.76  20067.84  80.51
805.7  24855.66  20019.00  80.54
806.9  24776.64  19969.73  80.60
808.1  24708.89  19944.69  80.72
809.4  24677.19  19931.73  80.77
810.6  24617.78  19905.34  80.86
811.8  24606.91  19916.59  80.94
813.0  24601.75  19950.48  81.09
814.2  24620.30  19985.47  81.17
815.4  24684.78  20026.36  81.13
816.6  24715.54  20050.37  81.12
817.9  24752.29  20052.37  81.01
819.1  24717.85  19987.56  80.86
820.3  24615.89  19906.80  80.87
821.5  24558.22  19847.57  80.82
822.7  24525.20  19808.86  80.77
823.9  24512.51  19798.60  80.77
825.1  24512.73  19776.59  80.68
826.3  24527.23  19773.80  80.62
827.5  24554.23  19775.56  80.54
828.7  24585.24  19764.86  80.39
829.9  24620.63  19764.17  80.27
831.0  24677.45  19802.61  80.25
832.2  24735.00  19813.27  80.10
833.4  24800.15  19844.47  80.02
834.6  24827.34  19867.50  80.02
835.8  24886.58  19894.14  79.94
837.0  24941.18  19943.41  79.96
838.1  25036.55  20026.67  79.99
839.3  25073.20  20071.54  80.05
840.5  25138.07  20121.63  80.04
841.7  25214.76  20203.11  80.12
842.9  25311.78  20310.29  80.24
844.0  25352.29  20365.68  80.33
845.2  25454.19  20452.38  80.35
846.4  25527.43  20522.24  80.39
847.5  25656.16  20629.69  80.41
848.7  25745.00  20716.59  80.47
849.9  25879.71  20784.72  80.31
851.0  25913.04  20795.64  80.25
852.2  25966.07  20805.05  80.12
853.3  25941.98  20765.47  80.05
854.5  25934.86  20760.66  80.05
855.6  25916.94  20753.65  80.08
856.8  25944.85  20778.57  80.09
857.9  25943.54  20788.36  80.13
859.1  25996.60  20835.31  80.15
860.2  26027.46  20849.60  80.11
861.4  26023.97  20862.48  80.17
862.5  26059.24  20877.53  80.12
863.7  26115.12  20906.95  80.06
864.8  26101.25  20924.45  80.17
865.9  26082.46  20886.66  80.08
867.1  26099.25  20912.26  80.13
868.2  26099.69  20912.19  80.12
869.3  26128.19  20917.61  80.06
870.5  26099.47  20879.58  80.00
871.6  26087.08  20894.83  80.10
872.7  26136.21  20937.45  80.11
873.9  26148.82  20927.03  80.03
875.0  26142.73  20905.08  79.97
876.1  26142.29  20902.53  79.96
877.2  26184.05  20912.77  79.87
878.3  26169.01  20877.86  79.78
879.4  26191.11  20890.12  79.76
880.5  26214.48  20910.86  79.77
881.7  26220.35  20866.99  79.58
882.8  26271.44  20863.23  79.41
883.9  26272.50  20832.34  79.29
885.0  26275.91  20765.20  79.03
886.1  26278.81  20728.38  78.88
887.2  26194.66  20592.94  78.62
888.3  26154.69  20534.07  78.51
889.4  26083.75  20430.32  78.33
890.5  26060.47  20381.32  78.21
891.6  26043.45  20328.29  78.06
892.7  26025.13  20288.11  77.96
893.8  26046.70  20309.22  77.97
894.9  26070.72  20306.34  77.89
896.0  26059.51  20250.46  77.71
897.0  26054.12  20238.87  77.68
898.1  26079.30  20225.70  77.55
899.2  26095.96  20196.82  77.39
900.3  26052.56  20138.42  77.30
901.4  26029.33  20078.06  77.14
902.4  26018.83  20065.04  77.12
903.5  26017.27  20017.72  76.94
904.6  26012.16  20019.20  76.96
905.7  26050.43  19961.44  76.63
906.7  26024.14  19940.60  76.62
907.8  26076.86  19929.15  76.42
908.9  26057.48  19853.50  76.19
909.9  26017.06  19794.45  76.08
911.0  26009.49  19766.69  76.00
912.1  25979.15  19668.69  75.71
913.1  25944.88  19599.28  75.54
914.2  25856.17  19518.79  75.49
915.2  25844.13  19480.50  75.38
916.3  25883.78  19425.98  75.05
917.3  25847.25  19375.25  74.96
918.4  25819.06  19293.16  74.72
919.4  25792.96  19222.94  74.53
920.5  25804.34  19151.82  74.22
921.5  25824.68  19075.78  73.87
922.6  25820.42  18985.18  73.53
923.6  25802.74  18926.62  73.35
924.7  25837.63  18862.67  73.00
925.7  25830.51  18784.90  72.72
926.7  25889.20  18698.73  72.23
927.8  25949.67  18631.90  71.80
928.8  26061.51  18582.86  71.30
929.9  26114.55  18537.19  70.98
930.9  26214.58  18496.35  70.56
931.9  26363.30  18518.12  70.24
932.9  26568.63  18534.45  69.76
934.0  26604.58  18438.66  69.31
935.0  26610.78  18369.70  69.03
936.0  26639.41  18261.83  68.55
937.0  26632.91  18132.74  68.08
938.1  26589.57  18033.76  67.82
939.1  26594.73  17950.94  67.50
940.1  26647.30  17849.04  66.98
941.1  26757.94  17820.58  66.60
942.1  26950.86  17819.77  66.12
943.1  27064.46  17796.09  65.75
944.1  27200.04  17745.07  65.24
945.2  27250.86  17641.23  64.74
946.2  27341.46  17540.75  64.15
947.2  27385.31  17444.57  63.70
948.2  27528.14  17366.73  63.09
949.2  27562.84  17243.53  62.56
950.2  27601.23  17137.25  62.09
951.2  27696.06  17010.34  61.42
952.2  27776.58  16861.58  60.70
953.2  27874.44  16820.29  60.34
954.2  27994.28  16741.29  59.80
955.2  28013.52  16607.89  59.29
956.2  27975.49  16498.28  58.97
957.2  28074.45  16403.50  58.43
958.2  28163.05  16353.16  58.07
959.2  28188.45  16277.04  57.74
960.1  28244.69  16241.62  57.50
961.1  28322.00  16214.51  57.25
962.1  28304.06  16171.38  57.13
963.1  28357.97  16155.56  56.97
964.1  28464.51  16164.75  56.79
965.1  28543.56  16159.34  56.61
966.1  28584.14  16194.40  56.66
967.0  28655.80  16194.79  56.51
968.0  28697.14  16192.08  56.42
969.0  28718.80  16201.23  56.41
970.0  28760.47  16236.53  56.45
971.0  28834.42  16235.07  56.30
971.9  28848.78  16270.89  56.40
972.9  28890.31  16244.15  56.23
973.9  28948.56  16247.14  56.12
974.9  29046.70  16299.55  56.11
975.8  29063.68  16287.77  56.04
976.8  29052.58  16298.64  56.10
977.8  29165.54  16306.79  55.91
978.8  29197.88  16362.16  56.04
979.7  29189.32  16442.83  56.33
981.4  29653.05  15630.03  52.71
985.3  29580.67  15861.15  53.62
989.3  29694.74  16231.15  54.66
993.3  29811.28  16598.10  55.68
997.2  29873.76  16847.92  56.40
1001.2  29847.48  17052.75  57.13
1005.2  29766.32  17244.83  57.93
1009.1  29802.16  17464.94  58.60
1013.1  29912.80  17758.60  59.37
1017.1  29980.27  18075.26  60.29
1021.0  29997.45  18327.41  61.10
1025.0  29986.05  18562.79  61.90
1029.0  29874.56  18726.88  62.69
1032.9  29757.39  18868.20  63.41
1036.9  29719.10  19074.60  64.18
1040.9  29786.91  19334.91  64.91
1044.8  29914.06  19621.43  65.59
1048.8  30017.23  19887.05  66.25
1052.7  30081.05  20116.73  66.88
1056.7  30106.96  20265.73  67.31
1060.7  30124.55  20378.19  67.65
1064.6  30126.20  20477.00  67.97
1068.6  30068.46  20484.05  68.12
1072.5  30024.99  20451.02  68.11
1076.5  29992.38  20412.83  68.06
1080.4  29983.51  20356.71  67.89
1084.4  30049.89  20313.19  67.60
1088.3  30134.74  20246.89  67.19
1092.3  30115.74  20099.46  66.74
1096.2  30104.84  19931.19  66.21
1100.2  30142.18  19767.97  65.58
1104.1  30082.71  19544.76  64.97
1108.1  30052.27  19342.32  64.36
1112.0  29977.43  19097.18  63.71
1116.0  29868.35  18778.24  62.87
1119.9  29779.89  18429.97  61.89
1123.9  29822.35  18091.25  60.66
1127.8  29798.40  17600.00  59.06
1131.8  29786.58  16974.82  56.99
1135.7  29821.64  16235.97  54.44
1139.6  29831.38  15411.68  51.66
1143.6  29819.95  14619.84  49.03
1147.5  29803.64  13935.09  46.76
1151.4  29713.98  13380.63  45.03
1155.4  29731.43  13046.74  43.88
1159.3  29760.66  12835.08  43.13
1163.2  29674.15  12649.02  42.63
1167.2  29672.28  12554.02  42.31
1171.1  29681.80  12495.38  42.10
1175.0  29651.52  12421.19  41.89
1179.0  29638.87  12360.23  41.70
1182.9  29697.98  12323.96  41.50
1186.8  29706.14  12270.69  41.31
1190.7  29571.10  12163.77  41.13
1194.7  29411.94  12045.49  40.95
1198.6  29289.65  11970.42  40.87
1202.5  29196.66  11940.48  40.90
1206.4  29112.98  11939.03  41.01
1210.3  29056.59  11953.38  41.14
1214.2  29008.58  11971.00  41.27
1218.2  28915.95  11998.77  41.50
1222.1  28833.10  12036.72  41.75
1226.0  28785.60  12085.67  41.99
1229.9  28734.48  12141.24  42.25
1233.8  28673.70  12188.99  42.51
1237.7  28644.25  12237.02  42.72
1241.6  28596.57  12271.21  42.91
1245.5  28494.07  12276.34  43.08
1249.4  28422.55  12292.48  43.25
1253.3  28356.92  12306.50  43.40
1257.2  28323.43  12325.29  43.52
1261.1  28264.79  12311.35  43.56
1265.0  28184.91  12274.59  43.55
1268.9  28067.43  12224.81  43.56
1272.8  28106.70  12223.65  43.49
1276.7  28238.01  12240.65  43.35
1280.6  28297.17  12200.13  43.11
1284.5  28250.81  12092.92  42.81
1288.4  28234.52  11983.00  42.44
1292.3  28165.50  11817.67  41.96
1296.2  28076.33  11622.25  41.40
1300.1  27971.71  11410.07  40.79
1303.9  27830.79  11155.22  40.08
1307.8  27679.51  10876.18  39.29
1311.7  27513.83  10575.60  38.44
1315.6  27356.90  10260.87  37.51
1319.5  27190.78  9924.65  36.50
1323.3  27036.43  9584.79  35.45
1327.2  26898.46  9242.60  34.36
1331.1  26745.75  8897.92  33.27
1335.0  26551.82  8548.52  32.20
1338.8  26417.20  8235.46  31.17
1342.7  26306.22  7948.71  30.22
1346.5  26068.84  7635.68  29.29
1350.4  25867.11  7364.51  28.47
1354.3  25587.95  7088.16  27.70
1358.1  25293.52  6802.83  26.90
1362.0  25095.25  6552.61  26.11
1365.8  25024.00  6333.41  25.31
1369.7  25106.98  6122.93  24.39
1373.5  25078.13  5856.11  23.35
1377.4  24917.97  5499.25  22.07
1381.2  24782.40  5047.65  20.37
1385.1  24754.66  4589.64  18.54
1389.0  24692.16  4164.22  16.86
1392.8  24567.88  3758.69  15.30
1396.6  24460.52  3390.82  13.86
1400.5  24320.99  3083.89  12.68
1404.3  24225.89  2845.82  11.75
1408.2  24204.64  2664.20  11.01
1412.0  24174.50  2530.36  10.47
1415.8  24201.79  2443.49  10.10
1419.6  24176.54  2363.06  9.77
1423.5  24162.30  2301.62  9.53
1427.3  24156.22  2266.30  9.38
1431.1  24149.78  2242.85  9.29
1434.9  24082.82  2208.46  9.17
1438.8  24045.91  2185.36  9.09
1442.6  24021.66  2174.90  9.05
1446.4  23948.95  2157.48  9.01
1450.2  23899.20  2144.80  8.97
1454.0  23823.72  2136.36  8.97
1457.8  23805.13  2138.13  8.98
1461.6  23794.65  2141.90  9.00
1465.4  23719.51  2147.21  9.05
1469.2  23598.58  2159.73  9.15
1473.0  23505.47  2173.78  9.25
1476.8  23479.35  2202.82  9.38
1480.7  23444.07  2242.54  9.57
1484.4  23358.60  2283.80  9.78
1488.2  23294.76  2339.28  10.04
1492.0  23212.99  2394.52  10.32
1495.8  23134.48  2448.66  10.58
1499.6  23068.04  2493.23  10.81
1503.4  22989.82  2526.72  10.99
1507.2  22924.40  2557.20  11.15
1510.9  22832.54  2585.89  11.33
1514.7  22729.47  2615.88  11.51
1518.5  22650.58  2654.42  11.72
1522.3  22564.73  2688.81  11.92
1526.0  22502.83  2728.63  12.13
1529.8  22457.39  2782.55  12.39
1533.6  22379.96  2821.79  12.61
1537.3  22300.49  2857.19  12.81
1541.1  22218.14  2898.02  13.04
1544.8  22130.40  2945.60  13.31
1548.6  22049.49  2996.99  13.59
1552.4  21992.28  3040.59  13.83
1556.1  21940.64  3077.57  14.03
1559.9  21881.16  3103.42  14.18
1563.6  21806.79  3131.18  14.36
1567.3  21732.27  3179.50  14.63
1571.1  21585.13  3222.21  14.93
1574.8  21494.94  3270.99  15.22
1578.6  21441.85  3321.71  15.49
1582.3  21360.05  3353.36  15.70
1586.0  21278.88  3373.57  15.85
1589.8  21182.42  3392.46  16.02
1593.5  21087.16  3410.84  16.17
1597.2  21011.15  3430.23  16.33
1600.9  20910.91  3445.90  16.48
1604.7  20817.19  3461.92  16.63
1608.4  20751.75  3492.71  16.83
1612.1  20653.79  3516.39  17.03
1615.8  20554.46  3533.61  17.19
1619.5  20509.10  3566.80  17.39
1623.2  20415.20  3585.59  17.56
1626.9  20293.94  3599.90  17.74
1630.6  20187.64  3616.29  17.91
1634.3  20108.09  3624.58  18.03
1638.0  20016.12  3626.15  18.12
1641.7  19907.78  3623.02  18.20
1645.4  19793.59  3618.93  18.28
1649.1  19676.58  3607.22  18.33
1652.8  19573.89  3596.20  18.37
1656.4  19468.81  3580.85  18.39
1660.1  19373.12  3568.20  18.42
1663.8  19253.37  3549.83  18.44
1667.5  19154.03  3537.15  18.47
1671.1  19073.44  3528.14  18.50
1674.8  18955.63  3506.50  18.50
1678.5  18920.35  3496.16  18.48
1682.1  18926.99  3487.31  18.43
1685.8  18934.59  3473.03  18.34
1689.5  18875.64  3447.62  18.26
1693.1  18777.51  3419.91  18.21
1696.8  18693.63  3383.59  18.10
1700.4  18605.80  3345.12  17.98
1704.0  18533.22  3309.73  17.86
1707.7  18380.44  3249.27  17.68
1711.3  18186.09  3184.51  17.51
1715.0  18064.01  3130.62  17.33
1718.6  17962.81  3074.07  17.11
1722.2  17869.77  3019.63  16.90
1725.9  17778.98  2968.80  16.70
1729.5  17683.82  2924.86  16.54
1733.1  17615.86  2886.00  16.38
1736.7  17543.89  2852.41  16.26
1740.3  17426.02  2809.34  16.12
1744.0  17375.79  2771.37  15.95
1747.5  17289.32  2723.35  15.75
1751.2  17148.24  2665.33  15.54
1754.8  17043.21  2611.58  15.32
1758.4  16959.78  2562.80  15.11
1762.0  16844.84  2517.21  14.94
1765.5  16763.61  2482.17  14.81
1769.1  16735.20  2460.00  14.70
1772.7  16687.95  2432.30  14.58
1776.3  16608.65  2401.89  14.46
1779.9  16528.93  2375.17  14.37
1783.5  16504.40  2355.17  14.27
1787.0  16420.93  2330.74  14.19
1790.6  16313.97  2309.28  14.16
1794.2  16250.54  2297.49  14.14
1797.8  16183.76  2282.88  14.11
1801.3  16118.56  2273.23  14.10
1804.9  16020.38  2261.88  14.12
1808.4  15971.30  2251.75  14.10
1812.0  15882.75  2239.88  14.10
1815.5  15784.84  2223.07  14.08
1819.1  15650.89  2198.76  14.05
1822.6  15532.45  2181.82  14.05
1826.2  15446.30  2169.70  14.05
1829.7  15337.22  2151.43  14.03
1833.2  15178.78  2114.59  13.93
1836.8  15030.02  2078.74  13.83
1840.3  14950.04  2060.79  13.78
1843.8  14886.20  2050.00  13.77
1847.3  14837.06  2055.30  13.85
1850.8  14793.41  2049.60  13.85
1854.3  14722.56  2019.05  13.71
1857.8  14658.80  1958.67  13.36
1861.3  14629.20  1873.71  12.81
1864.8  14572.84  1762.75  12.10
1868.3  14425.58  1618.35  11.22
1871.8  14284.80  1456.64  10.20
1875.3  14255.61  1307.22  9.17
1878.8  14246.03  1216.82  8.54
1882.3  14193.40  1148.84  8.09
1885.8  14118.50  1078.83  7.64
1889.3  13979.52  1014.82  7.26
1892.7  13865.36  976.89  7.05
1896.2  13804.86  987.21  7.15
1899.7  13707.11  997.54  7.28
1901.7  12697.20  1230.53  9.69
1904.5  12812.38  1243.15  9.70
1907.2  12777.50  1252.42  9.80
1910.0  12693.31  1242.24  9.79
1912.7  12674.55  1206.34  9.52
1915.5  12622.22  1198.00  9.49
1918.2  12592.16  1189.20  9.44
1921.0  12470.84  1169.04  9.37
1923.7  12502.92  1180.59  9.44
1926.5  12525.14  1164.80  9.30
1929.2  12499.59  1160.81  9.29
1932.0  12466.20  1167.09  9.36
1934.7  12450.39  1165.20  9.36
1937.4  12388.06  1164.16  9.40
1940.2  12333.29  1164.79  9.44
1942.9  12377.93  1178.42  9.52
1945.6  12406.16  1174.78  9.47
1948.3  12364.25  1173.25  9.49
1951.1  12353.04  1171.89  9.49
1953.8  12345.00  1162.00  9.41
1956.5  12249.55  1178.03  9.62
1959.2  12291.89  1192.01  9.70
1961.9  12307.40  1189.02  9.66
1964.6  12224.28  1192.98  9.76
1967.3  12284.97  1206.45  9.82
1970.0  12156.72  1185.97  9.76
1972.8  12093.19  1202.16  9.94
1975.5  12180.79  1210.67  9.94
1978.2  12109.24  1207.91  9.98
1980.9  12027.29  1221.39  10.16
1983.5  11996.88  1210.84  10.09
1986.2  11983.38  1208.62  10.09
1988.9  11983.38  1220.26  10.18
1991.6  11899.51  1221.43  10.26
1994.3  11798.84  1208.29  10.24
1997.0  11807.25  1218.69  10.32
1999.7  11770.96  1229.07  10.44
2002.3  11768.44  1228.34  10.44
2005.0  11742.55  1234.09  10.51
2007.7  11687.40  1241.27  10.62
2010.4  11651.26  1235.27  10.60
2013.0  11630.36  1240.42  10.67
2015.7  11528.64  1244.65  10.80
2018.4  11457.30  1234.90  10.78
2021.0  11452.33  1242.89  10.85
2023.7  11380.16  1241.85  10.91
2026.4  11323.00  1233.70  10.90
2029.0  11263.54  1247.44  11.08
2031.7  11193.43  1258.11  11.24
2034.3  11193.43  1244.03  11.11
2037.0  11130.51  1238.60  11.13
2039.6  11076.09  1240.68  11.20
2042.3  11047.98  1238.48  11.21
2044.9  11026.46  1252.90  11.36
2047.5  11001.21  1254.77  11.41
2050.2  10900.40  1246.93  11.44
2052.8  10894.80  1255.33  11.52
2055.4  10822.84  1256.08  11.61
2058.1  10738.00  1242.27  11.57
2060.7  10718.83  1254.02  11.70
2063.3  10653.43  1255.86  11.79
2065.9  10619.50  1242.29  11.70
2068.6  10577.63  1244.15  11.76
2071.2  10537.83  1251.78  11.88
2073.8  10490.95  1248.99  11.91
2076.4  10463.25  1258.32  12.03
2079.0  10439.15  1254.20  12.01
2081.6  10423.40  1255.69  12.05
2084.2  10414.77  1275.39  12.25
2086.8  10346.04  1252.95  12.11
2089.4  10282.92  1243.41  12.09
2092.1  10234.00  1259.89  12.31
2094.7  10195.43  1249.59  12.26
2097.2  10197.17  1238.17  12.14
2099.8  10202.45  1258.22  12.33
2102.4  10082.46  1253.91  12.44
2105.0  9986.40  1240.70  12.42
2107.6  9963.47  1239.98  12.45
2110.2  9945.83  1249.39  12.56
2112.8  9950.08  1259.87  12.66
2115.3  9950.34  1257.63  12.64
2117.9  9955.62  1266.09  12.72
2120.5  9928.49  1266.08  12.75
2123.1  9866.03  1267.50  12.85
2125.6  9842.13  1274.80  12.95
2128.2  9772.14  1264.32  12.94
2130.8  9719.78  1273.35  13.10
2133.3  9694.67  1276.98  13.17
2135.9  9628.08  1254.13  13.03
2138.4  9561.93  1251.35  13.09
2141.0  9493.76  1241.94  13.08
2143.6  9481.01  1229.34  12.97
2146.1  9385.04  1239.98  13.21
2148.7  9294.55  1232.42  13.26
2151.2  9319.20  1218.31  13.07
2153.8  9286.22  1237.18  13.32
2156.3  9196.68  1225.63  13.33
2158.8  9176.01  1211.85  13.21
2161.4  9166.37  1223.56  13.35
2163.9  9107.40  1196.04  13.13
2166.4  9056.27  1187.59  13.11
2169.0  9041.49  1216.18  13.45
2171.5  8982.35  1194.49  13.30
2174.0  8919.05  1177.11  13.20
2176.5  8910.20  1193.01  13.39
2179.1  8872.37  1188.61  13.40
2181.6  8820.83  1179.16  13.37
2184.1  8802.64  1162.19  13.20
2186.6  8815.58  1167.46  13.24
2189.1  8766.51  1159.88  13.23
2191.6  8725.27  1146.60  13.14
2194.1  8759.24  1153.72  13.17
2196.6  8743.02  1143.54  13.08
2199.2  8762.69  1160.45  13.24
2201.7  8728.52  1164.04  13.34
2204.1  8693.38  1153.26  13.27
2206.6  8724.47  1155.06  13.24
2209.1  8690.36  1132.98  13.04
2211.6  8648.75  1129.31  13.06
2214.1  8641.19  1148.10  13.29
2216.6  8629.81  1126.84  13.06
2219.1  8603.23  1124.31  13.07
2221.6  8565.00  1138.19  13.29
2224.0  8580.12  1126.49  13.13
2226.5  8553.64  1109.79  12.97
2229.0  8526.93  1101.40  12.92
2231.5  8456.64  1091.55  12.91
2233.9  8447.09  1080.10  12.79
2236.4  8434.10  1085.95  12.88
2238.9  8377.75  1052.71  12.57
2241.3  8418.52  1027.38  12.20
2243.8  8391.31  1061.06  12.64
2246.2  8272.81  1046.70  12.65
2248.7  8260.98  1023.30  12.39
2251.2  8270.85  1026.17  12.41
2253.6  8217.60  1006.08  12.24
2256.1  8198.40  993.28  12.12
2258.5  8205.80  991.15  12.08
2260.9  8176.22  986.88  12.07
2263.4  8125.75  962.14  11.84
2265.8  8124.16  951.41  11.71
2268.3  8073.80  958.23  11.87
2270.7  8110.40  944.23  11.64
2273.1  8107.19  929.35  11.46
2275.6  8037.12  919.04  11.43
2278.0  8047.94  918.56  11.41
2280.4  8050.71  927.45  11.52
2282.8  7936.92  895.65  11.28
2285.3  7936.09  886.54  11.17
2287.7  8013.06  900.75  11.24
2290.1  7946.20  881.59  11.09
2292.5  7908.89  866.42  10.96
2294.9  7966.56  866.73  10.88
2297.3  7878.36  829.24  10.53
2299.7  7782.17  819.94  10.54
2302.1  7817.38  840.66  10.75
2304.5  7722.40  807.52  10.46
2306.9  7647.92  784.00  10.25
2309.3  7632.91  782.36  10.25
2311.7  7536.00  762.76  10.12
2314.1  7439.51  765.35  10.29
2316.5  7426.90  788.00  10.61
2318.9  7433.98  771.25  10.37
2321.3  7420.20  748.76  10.09
2323.7  7439.58  757.40  10.18
2326.1  7403.11  753.61  10.18
2328.4  7412.50  736.37  9.93
2330.8  7505.15  748.47  9.97
2333.2  7417.12  738.56  9.96
2335.6  7356.75  725.16  9.86
2337.9  7411.84  738.68  9.97
2340.3  7376.47  724.91  9.83
2342.7  7282.70  689.76  9.47
2345.0  7270.29  692.21  9.52
2347.4  7284.50  699.83  9.61
2349.7  7133.68  672.08  9.42
2352.1  7080.04  677.56  9.57
2354.4  7143.83  671.97  9.41
2356.8  7126.82  664.77  9.33
2359.2  7067.67  683.22  9.67
2361.5  7038.06  676.32  9.61
2363.8  7031.06  645.58  9.18
2366.2  7039.27  638.46  9.07
2368.5  7035.45  637.83  9.07
2370.9  7023.13  630.74  8.98
2373.2  6987.82  631.03  9.03
2375.5  6900.63  627.47  9.09
2377.9  6892.20  618.42  8.97
2380.2  6890.83  606.31  8.80
2382.5  6864.93  588.16  8.57
2384.8  6830.08  589.28  8.63
2387.2  6784.02  623.55  9.19
2389.5  6780.31  610.67  9.01
2391.8  6787.76  578.32  8.52
2394.1  6727.26  582.20  8.65
2396.4  6676.90  582.22  8.72
2398.7  6732.64  574.86  8.54
2401.0  6690.59  573.62  8.57
2403.3  6603.48  556.10  8.42
2405.6  6572.81  539.82  8.21
2407.9  6583.14  551.10  8.37
2410.2  6542.40  553.14  8.45
2412.5  6479.13  535.27  8.26
2414.8  6475.24  535.75  8.27
2417.1  6452.08  523.05  8.11
2419.4  6434.35  517.53  8.04
2421.7  6386.85  530.92  8.31
2424.0  6345.28  510.72  8.05
2426.2  6355.80  492.20  7.74
2428.5  6327.75  522.81  8.26
2430.8  6349.25  515.93  8.13
2433.1  6300.57  459.13  7.29
2435.4  6204.86  469.98  7.57
2437.6  6227.24  483.04  7.76
2439.9  6165.27  473.53  7.68
2442.2  6149.09  479.72  7.80
2444.4  6162.60  484.35  7.86
2446.7  6079.44  469.15  7.72
2448.9  6081.55  463.86  7.63
2451.2  6103.04  450.97  7.39
2453.4  6038.72  445.97  7.39
2455.7  6026.93  480.45  7.97
2457.9  5958.48  443.63  7.45
2460.2  5949.23  402.78  6.77
2462.4  5977.92  449.28  7.52
2464.7  5891.98  437.38  7.42
2466.9  5829.36  404.46  6.94
2469.2  5872.39  421.31  7.17
2471.4  5796.90  424.54  7.32
2473.6  5737.62  412.86  7.20
2475.9  5730.24  422.21  7.37
2478.1  5663.45  407.62  7.20
2480.3  5645.91  415.38  7.36
2482.5  5682.93  431.28  7.59
2484.8  5614.17  398.06  7.09
2487.0  5547.59  343.18  6.19
2489.2  5555.75  376.92  6.78
2491.4  5471.72  407.31  7.44
2493.6  5479.00  360.56  6.58
2495.8  5550.75  364.24  6.56
2498.0  5512.53  370.20  6.72
2500.2  5509.95  365.09  6.63
2502.4  5736.48  396.64  6.91
2504.6  5803.02  366.21  6.31
2506.8  5806.03  289.00  4.98
