/*** Spectra Vista SIG Data ***/
name= RS.sig
comm= SIG file reprocesed for matching/overlap;Averaged Ref/Tar of files: RS1,RS2,RS3
data=
346.4  468.20  126.55  27.03
347.9  473.76  121.53  25.65
349.5  521.04  124.18  23.83
351.1  558.48  123.97  22.20
352.6  585.06  133.04  22.74
354.2  625.05  137.56  22.01
355.7  673.50  138.74  20.60
357.3  724.71  144.60  19.95
358.8  751.43  148.31  19.74
360.4  798.47  155.59  19.49
361.9  821.87  153.70  18.70
363.5  851.78  156.74  18.40
365.1  887.68  153.50  17.29
366.6  918.37  152.95  16.65
368.2  973.68  154.45  15.86
369.7  1008.89  156.94  15.56
371.3  1073.36  156.17  14.55
372.8  1148.72  158.47  13.80
374.4  1191.49  167.99  14.10
375.9  1247.87  166.27  13.32
377.4  1278.23  164.58  12.88
379.0  1330.29  163.37  12.28
380.5  1360.26  162.29  11.93
382.1  1412.49  169.32  11.99
383.6  1460.03  160.65  11.00
385.2  1529.00  155.38  10.16
386.7  1608.26  161.37  10.03
388.3  1679.42  168.30  10.02
389.8  1759.55  168.82  9.59
391.3  1843.67  178.24  9.67
392.9  1897.62  179.14  9.44
394.4  1955.58  183.79  9.40
395.9  2019.02  196.77  9.75
397.5  2131.80  205.54  9.64
399.0  2240.25  200.95  8.97
400.6  2303.62  194.14  8.43
402.1  2342.64  193.67  8.27
403.6  2375.92  183.41  7.72
405.1  2451.81  181.05  7.38
406.7  2542.40  182.26  7.17
408.2  2650.73  192.01  7.24
409.7  2746.24  192.27  7.00
411.3  2843.51  199.28  7.01
412.8  2936.43  207.77  7.08
414.3  3034.90  212.04  6.99
415.8  3152.50  215.75  6.84
417.4  3253.58  221.21  6.80
418.9  3339.60  225.59  6.76
420.4  3424.70  228.23  6.66
421.9  3487.22  227.00  6.51
423.5  3546.87  225.33  6.35
425.0  3613.98  227.45  6.29
426.5  3695.85  223.60  6.05
428.0  3801.23  224.68  5.91
429.5  3926.30  225.74  5.75
431.1  4071.24  230.84  5.67
432.6  4225.66  235.31  5.57
434.1  4373.60  241.53  5.52
435.6  4514.36  242.65  5.38
437.1  4642.95  247.98  5.34
438.6  4769.06  254.93  5.35
440.1  4906.69  262.62  5.35
441.6  5042.30  266.06  5.28
443.1  5179.95  268.99  5.19
444.7  5318.34  273.04  5.13
446.2  5433.01  282.42  5.20
447.7  5551.25  288.03  5.19
449.2  5676.48  288.94  5.09
450.7  5788.64  289.61  5.00
452.2  5916.62  286.76  4.85
453.7  6028.91  289.75  4.81
455.2  6201.73  290.79  4.69
456.7  6390.56  297.44  4.65
458.2  6607.30  304.53  4.61
459.7  6823.25  311.50  4.57
461.2  7031.76  321.64  4.57
462.7  7219.07  325.48  4.51
464.2  7396.86  335.07  4.53
465.7  7583.22  341.89  4.51
467.2  7742.35  349.00  4.51
468.7  7912.00  355.93  4.50
470.2  8015.91  368.51  4.60
471.7  8177.13  382.14  4.67
473.2  8446.52  385.01  4.56
474.6  8688.33  385.26  4.43
476.1  8747.12  380.40  4.35
477.6  8779.39  380.93  4.34
479.1  8829.54  380.53  4.31
480.6  8916.06  380.16  4.26
482.1  9046.91  381.11  4.21
483.6  9204.08  383.57  4.17
485.1  9394.00  390.24  4.15
486.6  9626.34  393.42  4.09
488.0  9867.00  400.89  4.06
489.5  10130.90  408.65  4.03
491.0  10387.73  416.78  4.01
492.5  10649.88  423.47  3.98
494.0  10928.34  434.85  3.98
495.4  11158.95  438.85  3.93
496.9  11406.10  448.23  3.93
498.4  11649.48  456.24  3.92
499.9  11878.23  466.30  3.93
501.4  12101.58  471.91  3.90
502.8  12308.24  482.36  3.92
504.3  12497.40  483.18  3.87
505.8  12681.02  492.70  3.89
507.2  12808.72  496.79  3.88
508.7  12896.48  500.75  3.88
510.2  12964.78  501.94  3.87
511.6  13008.39  505.25  3.88
513.1  13093.74  503.53  3.85
514.6  13195.49  504.50  3.82
516.0  13281.41  503.68  3.79
517.5  13429.99  504.81  3.76
519.0  13603.01  513.95  3.78
520.5  13772.72  515.67  3.74
521.9  13993.28  525.41  3.75
523.4  14243.35  529.49  3.72
524.8  14493.24  537.69  3.71
526.3  14778.04  547.05  3.70
527.8  15074.01  558.54  3.71
529.2  15339.71  565.77  3.69
530.7  15629.94  577.99  3.70
532.1  15903.48  585.70  3.68
533.6  16214.37  596.92  3.68
535.0  16534.98  610.88  3.69
536.5  16856.03  620.41  3.68
538.0  17178.24  636.64  3.71
539.4  17501.02  648.69  3.71
540.9  17879.62  662.64  3.71
542.3  18237.67  675.76  3.71
543.8  18504.51  683.26  3.69
545.2  18600.74  685.76  3.69
546.6  18637.00  682.79  3.66
548.1  18690.38  683.04  3.65
549.5  18745.60  683.71  3.65
551.0  18790.92  681.54  3.63
552.4  18868.34  683.74  3.62
553.9  18922.09  686.47  3.63
555.3  18999.63  684.74  3.60
556.8  19143.87  691.81  3.61
558.2  19276.31  694.24  3.60
559.6  19441.66  696.80  3.58
561.1  19660.88  703.84  3.58
562.5  19883.82  713.22  3.59
564.0  20177.05  724.45  3.59
565.4  20444.07  735.36  3.60
566.8  20774.24  750.88  3.61
568.3  21077.79  761.14  3.61
569.7  21403.31  779.59  3.64
571.1  21706.83  794.06  3.66
572.6  22010.94  813.46  3.70
574.0  22299.75  832.70  3.73
575.4  22570.31  850.78  3.77
576.9  22820.49  875.26  3.84
578.3  23040.88  896.08  3.89
579.7  23243.15  920.14  3.96
581.1  23410.31  944.16  4.03
582.6  23592.46  975.45  4.13
584.0  23735.52  1006.22  4.24
585.4  23971.18  1043.63  4.35
586.8  24286.87  1082.96  4.46
588.3  24642.54  1128.97  4.58
589.7  24935.04  1176.16  4.72
591.1  25126.37  1213.97  4.83
592.5  25213.30  1254.33  4.97
594.0  25248.06  1296.70  5.14
595.4  25246.58  1340.70  5.31
596.8  25248.80  1388.10  5.50
598.2  25256.70  1439.30  5.70
599.6  25254.00  1495.99  5.92
601.0  25321.45  1561.71  6.17
602.4  25392.58  1627.14  6.41
603.9  25508.50  1701.59  6.67
605.3  25652.08  1780.11  6.94
606.7  25770.60  1864.26  7.23
608.1  26003.60  1958.48  7.53
609.5  26249.20  2060.94  7.85
610.9  26543.12  2176.03  8.20
612.3  26820.62  2292.74  8.55
613.7  27191.20  2426.54  8.92
615.1  27470.34  2552.63  9.29
616.5  27748.85  2688.32  9.69
617.9  28163.94  2849.51  10.12
619.3  28559.37  3018.15  10.57
620.7  29021.55  3207.98  11.05
622.1  29524.34  3335.64  11.30
623.5  30070.32  3438.59  11.44
624.9  30686.25  3572.90  11.64
626.3  31117.56  3728.17  11.98
627.7  30854.43  3836.47  12.43
629.1  30617.27  3977.50  12.99
630.5  30534.25  4143.12  13.57
631.9  30583.88  4342.44  14.20
633.3  30636.73  4531.97  14.79
634.7  30802.72  4739.85  15.39
636.1  30887.16  4899.50  15.86
637.5  30991.21  5062.22  16.33
638.9  31137.59  5216.31  16.75
640.2  31275.86  5363.09  17.15
641.6  31334.94  5483.09  17.50
643.0  31307.82  5579.81  17.82
644.4  31297.86  5676.55  18.14
645.8  31223.60  5749.97  18.42
647.2  31327.01  5850.77  18.68
648.5  31378.61  5960.66  19.00
649.9  31215.99  6036.34  19.34
651.3  31061.55  6135.22  19.75
652.7  30880.50  6212.65  20.12
654.1  30705.72  6105.80  19.88
655.5  30448.41  5946.57  19.53
656.8  30219.54  5793.36  19.17
658.2  30347.48  5718.85  18.84
659.6  30667.01  5663.49  18.47
660.9  30915.41  5604.12  18.13
662.3  31175.28  5529.33  17.74
663.7  31418.10  5436.62  17.30
665.0  31622.76  5339.39  16.88
666.4  31821.65  5251.16  16.50
667.8  32088.83  5181.68  16.15
669.1  32304.87  5114.75  15.83
670.5  32567.66  5072.28  15.57
671.9  32723.64  5042.40  15.41
673.2  32957.22  5052.24  15.33
674.6  33165.65  5075.51  15.30
676.0  33416.99  5147.47  15.40
677.3  33670.84  5253.43  15.60
678.7  33959.63  5406.99  15.92
680.0  34360.72  5645.17  16.43
681.4  34770.40  5971.21  17.17
682.8  35166.95  6411.86  18.23
684.1  35575.02  6981.08  19.62
685.5  35948.61  7683.60  21.37
686.8  36307.14  8518.90  23.46
688.2  36654.12  9461.70  25.81
689.5  36792.82  10463.01  28.44
690.9  36894.22  11529.22  31.25
692.2  37000.50  12612.90  34.09
693.6  37086.31  13716.55  36.99
694.9  37102.94  14765.70  39.80
696.2  37172.03  15784.87  42.46
697.6  37238.58  16749.00  44.98
698.9  37321.68  17690.20  47.40
700.3  37412.04  18584.36  49.67
701.6  37521.51  19423.41  51.77
703.0  37648.39  20206.29  53.67
704.3  37727.46  20878.61  55.34
705.6  37779.39  21518.99  56.96
707.0  37853.11  22102.44  58.39
708.3  37804.36  22579.63  59.73
709.6  37779.31  23030.61  60.96
711.0  37700.05  23392.53  62.05
712.3  37603.29  23731.05  63.11
713.6  37599.66  24088.01  64.06
714.9  37564.50  24406.85  64.97
716.3  37606.65  24742.28  65.79
717.6  37655.10  25077.21  66.60
718.9  37643.31  25313.31  67.25
720.2  37519.65  25437.41  67.80
721.6  37437.79  25579.85  68.33
722.9  37295.06  25716.28  68.95
724.2  37099.21  25767.63  69.46
725.5  36957.59  25861.12  69.98
726.8  36833.83  25907.74  70.34
728.1  36764.75  25985.42  70.68
729.5  36694.32  26042.06  70.97
730.8  36660.60  26111.46  71.22
732.1  36590.42  26157.83  71.49
733.4  36549.03  26212.08  71.72
734.7  36509.02  26243.50  71.88
736.0  36510.50  26327.27  72.11
737.3  36452.29  26384.22  72.38
738.6  36538.42  26525.01  72.59
739.9  36706.85  26756.09  72.89
741.2  36841.35  26909.52  73.04
742.5  37078.82  27172.33  73.28
743.8  37494.19  27571.10  73.53
745.1  38118.44  28121.54  73.77
746.4  38876.11  28715.22  73.86
747.7  39639.96  29322.42  73.97
749.0  40400.48  29916.07  74.05
750.3  40850.46  30242.87  74.03
751.6  40764.46  30240.28  74.18
752.9  40356.61  30036.04  74.43
754.2  39863.99  29785.10  74.72
755.4  39350.05  29498.26  74.96
756.7  39155.03  29455.78  75.23
758.0  39142.09  29532.82  75.45
759.3  39351.46  29797.86  75.72
760.6  39645.76  30143.24  76.03
761.9  39928.94  30460.68  76.29
763.1  40078.15  30628.07  76.42
764.4  40287.45  30845.09  76.56
765.7  40433.25  31003.48  76.68
767.0  40515.07  31126.95  76.83
768.2  40595.52  31248.67  76.98
769.5  40644.33  31356.36  77.15
770.8  40787.04  31515.23  77.27
772.0  40799.41  31568.70  77.38
773.3  40833.29  31672.41  77.57
774.6  40907.98  31777.04  77.68
775.8  40955.53  31843.13  77.75
777.1  40964.33  31875.60  77.81
778.4  40867.87  31829.53  77.88
779.6  40816.98  31846.76  78.02
780.9  40688.00  31829.33  78.23
782.1  40484.72  31740.25  78.40
783.4  40464.32  31754.67  78.48
784.6  40463.12  31789.41  78.56
785.9  40670.74  32052.53  78.81
787.1  41171.80  32494.30  78.92
788.4  41528.97  32765.25  78.90
789.6  41482.13  32635.38  78.67
790.9  41134.16  32283.05  78.48
792.1  40655.28  31966.11  78.63
793.4  40180.32  31636.89  78.74
794.6  39846.60  31400.79  78.80
795.8  39587.54  31229.55  78.89
797.1  39290.10  31042.29  79.01
798.3  39054.26  30910.06  79.15
799.5  38943.25  30830.33  79.17
800.8  38778.22  30737.37  79.26
802.0  38618.88  30632.04  79.32
803.2  38465.20  30499.45  79.29
804.5  38332.71  30415.92  79.35
805.7  38219.65  30307.84  79.30
806.9  38073.35  30211.31  79.35
808.1  37984.05  30163.31  79.41
809.4  37906.28  30126.43  79.48
810.6  37824.15  30066.71  79.49
811.8  37796.29  30075.62  79.57
813.0  37827.58  30105.10  79.59
814.2  37840.50  30139.88  79.65
815.4  37955.24  30215.04  79.61
816.6  38027.91  30239.94  79.52
817.9  38102.35  30249.85  79.39
819.1  38072.96  30176.15  79.26
820.3  37949.69  30047.37  79.18
821.5  37894.61  29972.49  79.09
822.7  37866.54  29916.13  79.00
823.9  37906.28  29892.45  78.86
825.1  37943.15  29863.34  78.71
826.3  38020.73  29851.49  78.51
827.5  38108.05  29839.79  78.30
828.7  38176.32  29816.93  78.10
829.9  38262.68  29789.53  77.86
831.0  38386.63  29836.56  77.73
832.2  38533.16  29872.14  77.52
833.4  38634.36  29905.03  77.41
834.6  38746.88  29959.22  77.32
835.8  38872.58  30016.35  77.22
837.0  39026.76  30104.22  77.14
838.1  39200.00  30238.81  77.14
839.3  39334.99  30308.61  77.05
840.5  39499.16  30416.95  77.01
841.7  39675.29  30577.39  77.07
842.9  39834.34  30736.99  77.16
844.0  40002.80  30834.46  77.08
845.2  40188.33  30969.65  77.06
846.4  40315.24  31061.82  77.05
847.5  40575.08  31237.06  76.99
848.7  40794.29  31406.51  76.99
849.9  41043.27  31517.48  76.79
851.0  41176.72  31542.62  76.60
852.2  41283.01  31579.43  76.49
853.3  41336.03  31568.34  76.37
854.5  41385.60  31556.92  76.25
855.6  41408.01  31570.27  76.24
856.8  41491.09  31625.69  76.22
857.9  41535.42  31628.16  76.15
859.1  41657.80  31724.57  76.16
860.2  41711.76  31745.40  76.11
861.4  41789.90  31782.31  76.05
862.5  41857.52  31825.57  76.03
863.7  41978.22  31890.51  75.97
864.8  42001.40  31896.95  75.94
865.9  42003.19  31881.94  75.90
867.1  42077.89  31887.90  75.78
868.2  42118.25  31899.93  75.74
869.3  42153.63  31862.50  75.59
870.5  42092.46  31798.35  75.54
871.6  42122.53  31821.72  75.55
872.7  42223.14  31888.02  75.52
873.9  42262.83  31863.37  75.39
875.0  42247.20  31798.20  75.27
876.1  42225.11  31752.53  75.20
877.2  42279.84  31742.51  75.08
878.3  42302.12  31674.15  74.88
879.4  42284.06  31659.33  74.87
880.5  42343.92  31632.08  74.70
881.7  42326.05  31535.96  74.51
882.8  42351.34  31504.48  74.39
883.9  42430.09  31470.37  74.17
885.0  42357.32  31371.09  74.06
886.1  42357.47  31273.30  73.83
887.2  42241.92  31095.05  73.61
888.3  42147.85  30942.59  73.41
889.4  42045.32  30783.45  73.21
890.5  41945.29  30686.94  73.16
891.6  41864.40  30579.06  73.04
892.7  41844.69  30506.96  72.91
893.8  41881.85  30502.89  72.83
894.9  41879.31  30450.07  72.71
896.0  41812.69  30342.96  72.57
897.0  41850.92  30305.07  72.41
898.1  41821.61  30262.70  72.36
899.2  41852.54  30208.36  72.18
900.3  41747.94  30078.36  72.05
901.4  41622.41  29964.05  71.99
902.4  41658.53  29930.88  71.85
903.5  41604.82  29840.87  71.72
904.6  41550.72  29785.97  71.69
905.7  41565.54  29719.88  71.50
906.7  41536.49  29642.72  71.37
907.8  41558.34  29608.98  71.25
908.9  41493.73  29484.84  71.06
909.9  41451.58  29393.59  70.91
911.0  41358.23  29280.95  70.80
912.1  41297.17  29137.83  70.56
913.1  41189.72  29015.91  70.44
914.2  41099.85  28863.88  70.23
915.2  41068.89  28794.84  70.11
916.3  41034.15  28683.37  69.90
917.3  40975.74  28574.25  69.73
918.4  40862.80  28402.49  69.51
919.4  40836.29  28250.65  69.18
920.5  40782.84  28149.25  69.02
921.5  40833.45  28042.45  68.68
922.6  40729.18  27883.39  68.46
923.6  40739.49  27774.80  68.18
924.7  40774.75  27661.90  67.84
925.7  40746.72  27534.08  67.57
926.7  40808.40  27403.79  67.15
927.8  40839.01  27270.71  66.78
928.8  40966.59  27194.31  66.38
929.9  41048.46  27110.52  66.05
930.9  41217.18  27078.88  65.70
931.9  41378.61  27087.92  65.46
932.9  41679.25  27121.95  65.07
934.0  41702.58  26978.37  64.69
935.0  41757.18  26824.43  64.24
936.0  41670.71  26651.25  63.96
937.0  41632.50  26488.18  63.62
938.1  41580.55  26288.16  63.22
939.1  41508.45  26157.69  63.02
940.1  41591.64  26024.52  62.57
941.1  41779.29  25963.20  62.14
942.1  41991.60  25946.47  61.79
943.1  42156.63  25882.45  61.40
944.1  42391.18  25890.29  61.07
945.2  42445.20  25705.39  60.56
946.2  42493.04  25571.46  60.18
947.2  42572.63  25409.83  59.69
948.2  42750.54  25314.46  59.21
949.2  42846.38  25177.43  58.76
950.2  42880.60  24990.74  58.28
951.2  42968.52  24806.26  57.73
952.2  43001.40  24662.86  57.35
953.2  43164.71  24528.03  56.82
954.2  43310.48  24414.97  56.37
955.2  43368.34  24227.18  55.86
956.2  43301.73  24063.82  55.57
957.2  43392.87  23952.82  55.20
958.2  43492.10  23838.85  54.81
959.2  43506.45  23772.32  54.64
960.1  43588.22  23702.62  54.38
961.1  43692.83  23687.55  54.21
962.1  43658.44  23575.44  54.00
963.1  43782.00  23567.49  53.83
964.1  43817.42  23550.46  53.75
965.1  43908.74  23570.18  53.68
966.1  44007.38  23538.80  53.49
967.0  44141.86  23555.82  53.36
968.0  44131.86  23548.77  53.36
969.0  44255.20  23533.58  53.18
970.0  44255.36  23527.81  53.16
971.0  44316.83  23544.50  53.13
971.9  44400.90  23489.96  52.90
972.9  44577.14  23487.62  52.69
973.9  44494.78  23477.22  52.76
974.9  44573.29  23381.00  52.46
975.8  44702.44  23374.88  52.29
976.8  44666.28  23367.05  52.31
977.8  44950.93  23345.18  51.93
978.8  44877.90  23328.79  51.98
979.7  45104.10  23394.24  51.87
981.4  47578.80  25048.86  52.65
985.3  47203.20  24873.47  52.69
989.3  47137.31  24852.31  52.72
993.3  47133.16  24908.03  52.85
997.2  47029.21  24958.26  53.07
1001.2  46955.35  25114.05  53.48
1005.2  46914.32  25379.73  54.10
1009.1  47038.13  25770.98  54.79
1013.1  47236.75  26225.28  55.52
1017.1  47375.30  26650.41  56.25
1021.0  47429.61  26984.62  56.89
1025.0  47461.87  27306.20  57.53
1029.0  47354.18  27558.74  58.20
1032.9  47271.77  27842.14  58.90
1036.9  47308.70  28209.67  59.63
1040.9  47476.08  28647.16  60.34
1044.8  47747.63  29106.70  60.96
1048.8  47970.59  29511.29  61.52
1052.7  48104.60  29851.16  62.05
1056.7  48183.46  30075.35  62.42
1060.7  48250.82  30252.61  62.70
1064.6  48272.17  30388.11  62.95
1068.6  48190.54  30391.58  63.07
1072.5  48116.11  30353.38  63.08
1076.5  48076.67  30297.38  63.02
1080.4  48048.88  30198.36  62.85
1084.4  48150.59  30116.68  62.55
1088.3  48279.53  29995.91  62.13
1092.3  48252.92  29746.42  61.65
1096.2  48221.83  29491.78  61.16
1100.2  48245.69  29272.03  60.67
1104.1  48124.97  28945.95  60.15
1108.1  48059.38  28640.27  59.59
1112.0  47955.87  28279.31  58.97
1116.0  47754.46  27815.80  58.25
1119.9  47569.76  27294.98  57.38
1123.9  47623.80  26787.82  56.25
1127.8  47592.96  26044.16  54.72
1131.8  47556.42  25092.66  52.76
1135.7  47568.82  24000.84  50.45
1139.6  47554.30  22802.86  47.95
1143.6  47510.71  21663.49  45.60
1147.5  47481.98  20710.92  43.62
1151.4  47337.52  19920.65  42.08
1155.4  47322.86  19423.26  41.04
1159.3  47329.81  19104.75  40.37
1163.2  47159.49  18816.94  39.90
1167.2  47113.86  18646.36  39.58
1171.1  47117.13  18519.86  39.31
1175.0  47022.16  18380.72  39.09
1179.0  46962.63  18266.71  38.90
1182.9  47045.30  18200.41  38.69
1186.8  47019.62  18098.77  38.49
1190.7  46784.64  17931.79  38.33
1194.7  46508.35  17774.42  38.22
1198.6  46264.68  17673.81  38.20
1202.5  46100.54  17625.76  38.23
1206.4  45962.62  17599.12  38.29
1210.3  45829.98  17626.39  38.46
1214.2  45707.13  17666.28  38.65
1218.2  45554.16  17704.25  38.86
1222.1  45384.95  17782.16  39.18
1226.0  45257.55  17874.19  39.49
1229.9  45156.00  17951.10  39.75
1233.8  45033.17  18011.60  40.00
1237.7  44950.68  18081.90  40.23
1241.6  44841.64  18133.42  40.44
1245.5  44683.61  18151.18  40.62
1249.4  44538.65  18155.69  40.76
1253.3  44401.40  18165.33  40.91
1257.2  44324.52  18190.68  41.04
1261.1  44209.48  18181.26  41.13
1265.0  44086.55  18144.88  41.16
1268.9  43910.05  18057.49  41.12
1272.8  43969.80  18047.15  41.04
1276.7  44155.69  18064.51  40.91
1280.6  44249.88  18013.89  40.71
1284.5  44188.89  17864.87  40.43
1288.4  44167.03  17707.43  40.09
1292.3  44060.50  17491.83  39.70
1296.2  43934.23  17231.18  39.22
1300.1  43787.98  16918.71  38.64
1303.9  43564.57  16544.30  37.98
1307.8  43339.22  16144.86  37.25
1311.7  43109.06  15715.28  36.45
1315.6  42877.90  15267.62  35.61
1319.5  42633.84  14779.67  34.67
1323.3  42417.44  14286.93  33.68
1327.2  42218.70  13798.12  32.68
1331.1  42002.86  13301.90  31.67
1335.0  41739.72  12798.22  30.66
1338.8  41543.11  12337.31  29.70
1342.7  41389.31  11922.65  28.81
1346.5  41042.00  11474.76  27.96
1350.4  40741.74  11068.98  27.17
1354.3  40332.24  10643.51  26.39
1358.1  39895.31  10227.94  25.64
1362.0  39644.33  9877.75  24.92
1365.8  39567.12  9554.53  24.15
1369.7  39683.68  9234.34  23.27
1373.5  39615.26  8774.48  22.15
1377.4  39354.79  8165.35  20.75
1381.2  39167.92  7476.68  19.09
1385.1  39160.09  6796.41  17.36
1389.0  39060.88  6114.20  15.65
1392.8  38834.72  5435.95  14.00
1396.6  38680.88  4835.42  12.50
1400.5  38476.57  4325.39  11.24
1404.3  38299.58  3924.76  10.25
1408.2  38263.03  3620.29  9.46
1412.0  38218.70  3386.43  8.86
1415.8  38249.29  3218.47  8.41
1419.6  38208.11  3088.15  8.08
1423.5  38172.20  2985.36  7.82
1427.3  38125.77  2911.59  7.64
1431.1  38099.78  2858.98  7.50
1434.9  38010.73  2814.49  7.40
1438.8  37949.80  2787.26  7.34
1442.6  37913.52  2771.91  7.31
1446.4  37795.09  2749.10  7.27
1450.2  37700.99  2734.62  7.25
1454.0  37583.52  2727.64  7.26
1457.8  37547.69  2732.14  7.28
1461.6  37527.24  2748.34  7.32
1465.4  37404.28  2767.31  7.40
1469.2  37216.73  2793.70  7.51
1473.0  37080.95  2835.63  7.65
1476.8  37019.78  2900.65  7.84
1480.7  36949.43  2978.65  8.06
1484.4  36826.56  3061.28  8.31
1488.2  36723.96  3165.40  8.62
1492.0  36584.11  3273.05  8.95
1495.8  36452.33  3373.83  9.26
1499.6  36350.05  3456.48  9.51
1503.4  36216.75  3491.49  9.64
1507.2  36087.28  3507.16  9.72
1510.9  35929.91  3549.64  9.88
1514.7  35749.31  3610.35  10.10
1518.5  35615.65  3683.21  10.34
1522.3  35466.30  3758.02  10.60
1526.0  35355.47  3835.79  10.85
1529.8  35294.61  3926.39  11.12
1533.6  35159.29  4010.42  11.41
1537.3  35020.99  4088.10  11.67
1541.1  34889.16  4172.41  11.96
1544.8  34754.40  4253.60  12.24
1548.6  34607.98  4327.20  12.50
1552.4  34514.76  4406.19  12.77
1556.1  34455.77  4481.80  13.01
1559.9  34373.05  4542.21  13.21
1563.6  34243.93  4606.79  13.45
1567.3  34122.03  4688.38  13.74
1571.1  33904.82  4759.28  14.04
1574.8  33749.79  4840.84  14.34
1578.6  33637.37  4910.52  14.60
1582.3  33496.17  4952.40  14.78
1586.0  33359.51  4998.06  14.98
1589.8  33217.24  5036.56  15.16
1593.5  33051.52  5070.62  15.34
1597.2  32917.71  5114.93  15.54
1600.9  32767.31  5149.63  15.72
1604.7  32613.52  5184.87  15.90
1608.4  32493.03  5230.64  16.10
1612.1  32320.35  5262.57  16.28
1615.8  32161.00  5292.40  16.46
1619.5  32072.28  5338.95  16.65
1623.2  31915.49  5370.34  16.83
1626.9  31725.78  5393.80  17.00
1630.6  31537.44  5413.54  17.17
1634.3  31397.73  5438.89  17.32
1638.0  31241.74  5445.65  17.43
1641.7  31050.65  5438.93  17.52
1645.4  30870.63  5430.39  17.59
1649.1  30683.95  5412.01  17.64
1652.8  30504.58  5395.09  17.69
1656.4  30322.32  5372.06  17.72
1660.1  30158.02  5349.15  17.74
1663.8  29966.42  5321.61  17.76
1667.5  29809.99  5305.33  17.80
1671.1  29676.54  5278.58  17.79
1674.8  29472.79  5236.03  17.77
1678.5  29413.48  5216.18  17.73
1682.1  29419.35  5194.68  17.66
1685.8  29417.21  5169.54  17.57
1689.5  29310.65  5122.20  17.48
1693.1  29167.59  5071.01  17.39
1696.8  29020.13  5017.59  17.29
1700.4  28874.60  4945.03  17.13
1704.0  28754.23  4872.50  16.95
1707.7  28493.62  4777.59  16.77
1711.3  28200.13  4675.76  16.58
1715.0  27991.44  4588.33  16.39
1718.6  27822.35  4503.68  16.19
1722.2  27677.55  4422.69  15.98
1725.9  27527.50  4352.25  15.81
1729.5  27386.37  4291.94  15.67
1733.1  27262.24  4244.63  15.57
1736.7  27144.69  4208.65  15.50
1740.3  26982.07  4159.32  15.42
1744.0  26899.89  4104.35  15.26
1747.5  26760.07  4036.01  15.08
1751.2  26551.35  3953.79  14.89
1754.8  26397.18  3880.40  14.70
1758.4  26262.14  3815.99  14.53
1762.0  26085.49  3746.75  14.36
1765.5  25956.49  3699.77  14.25
1769.1  25915.20  3672.80  14.17
1772.7  25841.75  3641.99  14.09
1776.3  25724.16  3599.60  13.99
1779.9  25608.69  3559.49  13.90
1783.5  25553.92  3535.65  13.84
1787.0  25434.82  3504.43  13.78
1790.6  25293.30  3471.88  13.73
1794.2  25193.03  3458.06  13.73
1797.8  25095.48  3447.85  13.74
1801.3  25012.46  3433.64  13.73
1804.9  24871.88  3419.50  13.75
1808.4  24792.34  3417.21  13.78
1812.0  24660.35  3397.37  13.78
1815.5  24519.60  3372.14  13.75
1819.1  24324.68  3351.67  13.78
1822.6  24164.48  3332.37  13.79
1826.2  24042.90  3311.81  13.77
1829.7  23859.90  3277.18  13.74
1833.2  23612.46  3231.06  13.68
1836.8  23400.20  3186.07  13.62
1840.3  23257.80  3148.13  13.54
1843.8  23131.92  3114.44  13.46
1847.3  23013.03  3087.23  13.42
1850.8  22865.47  3049.54  13.34
1854.3  22692.74  2991.47  13.18
1857.8  22594.00  2898.13  12.83
1861.3  22615.25  2772.93  12.26
1864.8  22605.64  2599.51  11.50
1868.3  22468.36  2387.13  10.62
1871.8  22341.12  2183.68  9.77
1875.3  22323.21  1987.90  8.91
1878.8  22320.32  1822.65  8.17
1882.3  22237.89  1681.48  7.56
1885.8  22045.10  1539.27  6.98
1889.3  21861.76  1423.53  6.51
1892.7  21710.01  1348.76  6.21
1896.2  21503.16  1308.78  6.09
1899.7  21232.37  1307.00  6.16
1901.7  20074.51  738.71  3.68
1904.5  20223.67  730.02  3.61
1907.2  20168.50  722.00  3.58
1910.0  20030.00  694.61  3.47
1912.7  20048.69  675.23  3.37
1915.5  19979.54  669.87  3.35
1918.2  19877.64  676.31  3.40
1921.0  19705.09  662.45  3.36
1923.7  19733.20  661.44  3.35
1926.5  19715.86  657.85  3.34
1929.2  19701.76  644.54  3.27
1932.0  19674.16  661.49  3.36
1934.7  19635.47  654.51  3.33
1937.4  19518.79  647.22  3.32
1940.2  19475.71  657.69  3.38
1942.9  19573.26  665.84  3.40
1945.6  19572.62  658.36  3.36
1948.3  19494.00  647.80  3.32
1951.1  19465.67  660.19  3.39
1953.8  19476.00  679.00  3.49
1956.5  19368.67  688.85  3.56
1959.2  19423.04  680.72  3.50
1961.9  19438.54  672.49  3.46
1964.6  19331.55  689.21  3.57
1967.3  19375.30  708.04  3.65
1970.0  19228.16  689.68  3.59
1972.8  19159.08  706.00  3.68
1975.5  19219.42  725.81  3.78
1978.2  19120.16  715.40  3.74
1980.9  19002.89  725.84  3.82
1983.5  18950.70  734.84  3.88
1986.2  18944.10  726.53  3.84
1988.9  18909.18  741.08  3.92
1991.6  18787.78  746.38  3.97
1994.3  18678.85  754.82  4.04
1997.0  18669.58  766.96  4.11
1999.7  18631.37  759.08  4.07
2002.3  18617.79  769.03  4.13
2005.0  18540.12  785.33  4.24
2007.7  18469.93  785.47  4.25
2010.4  18400.48  788.94  4.29
2013.0  18316.11  805.14  4.40
2015.7  18226.45  810.82  4.45
2018.4  18129.14  806.56  4.45
2021.0  18062.50  819.78  4.54
2023.7  17946.51  829.15  4.62
2026.4  17902.73  823.41  4.60
2029.0  17806.29  836.94  4.70
2031.7  17677.40  844.06  4.77
2034.3  17722.47  847.82  4.78
2037.0  17610.64  858.58  4.88
2039.6  17527.07  854.32  4.87
2042.3  17481.88  848.12  4.85
2044.9  17393.81  861.14  4.95
2047.5  17348.93  872.36  5.03
2050.2  17253.60  865.20  5.01
2052.8  17214.40  879.20  5.11
2055.4  17090.17  885.33  5.18
2058.1  16973.60  874.53  5.15
2060.7  16918.14  875.77  5.18
2063.3  16842.61  889.87  5.28
2065.9  16794.67  888.68  5.29
2068.6  16710.92  892.40  5.34
2071.2  16664.67  900.24  5.40
2073.8  16591.32  895.47  5.40
2076.4  16536.88  900.94  5.45
2079.0  16525.61  914.19  5.53
2081.6  16519.89  917.14  5.55
2084.2  16487.00  923.63  5.60
2086.8  16353.42  939.01  5.74
2089.4  16268.28  923.81  5.68
2092.1  16209.50  928.39  5.73
2094.7  16113.80  929.43  5.77
2097.2  16087.67  929.33  5.78
2099.8  16089.36  950.79  5.91
2102.4  15953.94  944.93  5.92
2105.0  15826.05  947.15  5.98
2107.6  15774.07  972.23  6.16
2110.2  15742.83  972.80  6.18
2112.8  15734.02  953.49  6.06
2115.3  15735.22  961.26  6.11
2117.9  15738.64  977.86  6.21
2120.5  15682.70  983.33  6.27
2123.1  15604.88  996.45  6.39
2125.6  15567.02  1001.49  6.43
2128.2  15487.92  989.21  6.39
2130.8  15394.28  989.63  6.43
2133.3  15347.20  1000.27  6.52
2135.9  15264.31  998.21  6.54
2138.4  15119.35  1004.81  6.65
2141.0  15032.51  1011.77  6.73
2143.6  14998.41  997.74  6.65
2146.1  14847.40  988.26  6.66
2148.7  14686.27  1005.32  6.85
2151.2  14704.80  1009.07  6.86
2153.8  14713.72  997.79  6.78
2156.3  14589.47  1008.07  6.91
2158.8  14533.35  1009.06  6.94
2161.4  14517.59  1022.09  7.04
2163.9  14426.20  1033.88  7.17
2166.4  14354.62  1024.98  7.14
2169.0  14310.27  1026.95  7.18
2171.5  14227.48  1020.05  7.17
2174.0  14143.15  1014.48  7.17
2176.5  14124.76  1012.61  7.17
2179.1  14082.55  1025.97  7.29
2181.6  13967.33  1013.89  7.26
2184.1  13937.00  1008.19  7.23
2186.6  13993.83  1027.28  7.34
2189.1  13896.09  1017.57  7.32
2191.6  13840.87  1021.38  7.38
2194.1  13877.92  1023.07  7.37
2196.6  13844.81  1022.40  7.38
2199.2  13897.52  1026.73  7.39
2201.7  13871.80  1029.13  7.42
2204.1  13802.39  1039.64  7.53
2206.6  13786.08  1039.43  7.54
2209.1  13743.34  1039.62  7.56
2211.6  13738.26  1040.49  7.57
2214.1  13693.60  1037.86  7.58
2216.6  13643.61  1034.41  7.58
2219.1  13655.01  1009.09  7.39
2221.6  13597.41  1015.11  7.47
2224.0  13563.60  1029.97  7.59
2226.5  13534.39  998.18  7.38
2229.0  13551.73  997.35  7.36
2231.5  13416.49  997.08  7.43
2233.9  13376.81  967.21  7.23
2236.4  13409.64  972.72  7.25
2238.9  13341.63  946.79  7.10
2241.3  13300.17  930.21  6.99
2243.8  13261.31  943.16  7.11
2246.2  13153.53  916.19  6.97
2248.7  13089.53  906.32  6.92
2251.2  13067.33  904.46  6.92
2253.6  13017.60  888.32  6.82
2256.1  12979.20  867.84  6.69
2258.5  12980.99  859.25  6.62
2260.9  12912.45  846.26  6.55
2263.4  12850.74  839.31  6.53
2265.8  12840.17  827.03  6.44
2268.3  12768.77  801.74  6.28
2270.7  12812.36  813.73  6.35
2273.1  12778.22  818.14  6.40
2275.6  12710.40  789.76  6.21
2278.0  12729.12  768.67  6.04
2280.4  12680.26  773.52  6.10
2282.8  12544.20  773.04  6.16
2285.3  12570.98  749.15  5.96
2287.7  12679.54  738.05  5.82
2290.1  12579.51  728.73  5.79
2292.5  12520.09  714.30  5.71
2294.9  12538.64  715.25  5.70
2297.3  12458.25  689.49  5.53
2299.7  12334.59  672.53  5.45
2302.1  12311.40  680.91  5.53
2304.5  12214.72  663.79  5.43
2306.9  12089.28  645.49  5.34
2309.3  11994.02  641.30  5.35
2311.7  11939.85  639.78  5.36
2314.1  11791.37  610.44  5.18
2316.5  11721.50  612.01  5.22
2318.9  11765.88  641.18  5.45
2321.3  11730.50  633.87  5.40
2323.7  11744.39  625.62  5.33
2326.1  11719.24  623.31  5.32
2328.4  11761.55  611.61  5.20
2330.8  11807.83  620.32  5.25
2333.2  11712.54  623.24  5.32
2335.6  11662.03  589.54  5.06
2337.9  11681.16  594.01  5.09
2340.3  11629.38  605.96  5.21
2342.7  11548.22  589.61  5.11
2345.0  11508.47  569.05  4.94
2347.4  11492.00  559.58  4.87
2349.7  11315.65  555.32  4.91
2352.1  11286.89  531.75  4.71
2354.4  11296.02  525.83  4.66
2356.8  11214.70  542.46  4.84
2359.2  11154.00  564.78  5.06
2361.5  11109.05  541.05  4.87
2363.8  11141.66  513.83  4.61
2366.2  11165.73  534.01  4.78
2368.5  11089.40  517.68  4.67
2370.9  11067.03  517.42  4.68
2373.2  11030.32  518.62  4.70
2375.5  10914.30  494.74  4.53
2377.9  10876.18  493.82  4.54
2380.2  10876.88  507.04  4.66
2382.5  10821.23  496.26  4.59
2384.8  10769.44  474.83  4.41
2387.2  10736.28  493.84  4.60
2389.5  10704.02  491.05  4.59
2391.8  10661.73  446.81  4.19
2394.1  10613.91  470.24  4.43
2396.4  10610.47  478.99  4.51
2398.7  10654.34  440.08  4.13
2401.0  10513.07  468.13  4.45
2403.3  10428.12  466.46  4.47
2405.6  10456.51  451.52  4.32
2407.9  10375.71  472.61  4.55
2410.2  10317.44  449.53  4.36
2412.5  10224.31  435.33  4.26
2414.8  10187.84  439.90  4.32
2417.1  10204.62  426.70  4.18
2419.4  10195.97  434.17  4.26
2421.7  10103.31  432.80  4.28
2424.0  10048.90  420.90  4.19
2426.2  10074.05  399.47  3.97
2428.5  10032.46  407.43  4.06
2430.8  10006.20  408.75  4.08
2433.1  9945.94  422.25  4.25
2435.4  9886.37  419.63  4.24
2437.6  9830.42  384.19  3.91
2439.9  9708.34  374.33  3.86
2442.2  9709.99  394.39  4.06
2444.4  9752.18  375.23  3.85
2446.7  9688.56  365.97  3.78
2448.9  9658.24  373.07  3.86
2451.2  9631.36  367.53  3.82
2453.4  9564.32  383.70  4.01
2455.7  9566.46  377.07  3.94
2457.9  9468.86  370.37  3.91
2460.2  9395.46  349.35  3.72
2462.4  9422.40  328.64  3.49
2464.7  9348.95  344.86  3.69
2466.9  9251.22  363.80  3.93
2469.2  9249.34  375.94  4.06
2471.4  9151.61  372.02  4.07
2473.6  9078.42  314.67  3.47
2475.9  9042.40  302.54  3.35
2478.1  8956.32  321.09  3.59
2480.3  8952.70  308.64  3.45
2482.5  8971.16  319.29  3.56
2484.8  8832.66  320.39  3.63
2487.0  8762.09  311.08  3.55
2489.2  8850.00  339.23  3.83
2491.4  8753.22  322.77  3.69
2493.6  8669.20  310.92  3.59
2495.8  8662.66  343.13  3.96
2498.0  8674.13  324.27  3.74
2500.2  8694.60  308.92  3.55
2502.4  8942.16  287.12  3.21
2504.6  9089.52  294.22  3.24
2506.8  9176.65  347.46  3.79
