/*** Spectra Vista SIG Data ***/
name= RS.sig
comm= Resampled spectral data SIG file reprocesed for matching/overlap;Averaged Ref/Tar of files: RS1,RS2,RS3
data=
346.0  468.20  126.55  27.03
356.0  683.10  139.84  20.47
366.0  906.09  153.17  16.90
376.0  1249.89  166.16  13.29
386.0  1571.27  158.57  10.09
396.0  2026.07  197.32  9.74
406.0  2502.77  181.73  7.26
416.0  3165.14  216.43  6.84
426.0  3668.56  224.88  6.13
436.0  4548.65  244.07  5.37
446.0  5417.72  281.17  5.19
456.0  6302.44  294.34  4.67
466.0  7615.04  343.31  4.51
476.0  8743.20  380.72  4.35
486.0  9533.40  392.15  4.11
496.0  11257.81  442.60  3.93
506.0  12699.26  493.28  3.88
516.0  13281.41  503.68  3.79
526.0  14721.08  545.18  3.70
536.0  16749.01  617.23  3.69
546.0  18621.46  684.06  3.67
556.0  19066.94  688.04  3.61
566.0  20585.57  742.01  3.60
576.0  22670.38  860.57  3.80
586.0  24106.47  1060.49  4.40
596.0  25247.53  1361.01  5.39
606.0  25711.34  1822.19  7.09
616.0  27649.38  2639.86  9.55
626.0  31025.14  3694.90  11.91
636.0  30881.13  4888.10  15.83
646.0  31238.37  5764.37  18.45
656.0  30360.38  5887.64  19.39
666.0  31764.82  5276.37  16.61
676.0  33416.99  5147.47  15.40
686.0  36086.51  8004.87  22.18
696.0  37161.40  15628.06  42.05
706.0  37800.45  21685.70  57.37
716.0  37597.62  24670.40  65.62
726.0  36909.99  25879.05  70.11
736.0  36510.50  26327.27  72.11
746.0  38642.98  28532.54  73.84
756.0  39260.04  29478.65  75.09
766.0  40452.13  31031.97  76.71
776.0  40956.88  31848.13  77.76
786.0  40712.49  32089.34  78.82
796.0  39541.78  31200.74  78.91
806.0  38183.08  30283.71  79.31
816.0  37991.58  30227.49  79.56
826.0  38001.34  29854.45  78.56
836.0  38898.28  30031.00  77.20
846.0  40272.93  31031.10  77.05
856.0  41435.70  31588.74  76.24
866.0  42009.41  31882.44  75.89
876.0  42227.12  31756.68  75.20
886.0  42357.46  31282.19  73.85
896.0  41812.69  30342.96  72.57
906.0  41556.83  29696.73  71.46
916.0  41043.62  28713.77  69.96
926.0  40765.22  27494.99  67.45
936.0  41670.71  26651.25  63.96
946.0  42483.47  25598.25  60.25
956.0  43315.05  24096.49  55.63
966.0  43997.52  23541.94  53.51
976.0  44695.21  23373.31  52.29
986.0  47191.67  24869.77  52.70
996.0  47061.19  24942.80  53.00
1006.0  46939.72  25459.99  54.24
1016.0  47337.20  26533.50  56.05
1026.0  47434.95  27369.34  57.70
1036.0  47300.39  28126.97  59.46
1046.0  47814.52  29228.07  61.13
1056.0  48169.66  30036.12  62.35
1066.0  48243.60  30389.32  62.99
1076.0  48081.60  30304.38  63.03
1086.0  48203.49  30067.13  62.38
1096.0  48223.42  29504.84  61.18
1106.0  48093.81  28800.75  59.88
1116.0  47754.46  27815.80  58.25
1126.0  47607.19  26387.39  55.43
1136.0  47567.70  23908.67  50.26
1146.0  47493.03  21077.29  44.38
1156.0  47323.93  19374.26  40.94
1166.0  47127.55  18697.53  39.67
1176.0  47007.28  18352.22  39.04
1186.0  47024.89  18119.62  38.53
1196.0  46427.12  17740.88  38.21
1206.0  45976.77  17601.85  38.28
1216.0  45638.29  17683.37  38.75
1226.0  45257.55  17874.19  39.49
1236.0  44986.64  18051.26  40.13
1246.0  44665.03  18151.76  40.64
1256.0  44348.18  18182.88  41.00
1266.0  44041.29  18122.47  41.15
1276.0  44122.33  18061.39  40.93
1286.0  44180.48  17804.32  40.30
1296.0  43940.70  17244.54  39.25
1306.0  43443.23  16329.22  37.59
1316.0  42852.87  15217.57  35.51
1326.0  42279.85  13948.52  32.99
1336.0  41687.98  12676.93  30.41
1346.0  41087.70  11533.69  28.07
1356.0  40136.77  10457.60  26.05
1366.0  39573.10  9538.11  24.10
1376.0  39448.29  8384.01  21.25
1386.0  39137.19  6638.97  16.96
1396.0  38705.17  4930.24  12.74
1406.0  38283.65  3792.04  9.91
1416.0  38247.12  3211.61  8.40
1426.0  38141.65  2936.83  7.70
1436.0  37993.55  2806.81  7.39
1446.0  37807.56  2751.50  7.28
1456.0  37564.66  2730.01  7.27
1466.0  37374.67  2771.48  7.42
1476.0  37032.66  2886.96  7.80
1486.0  36783.36  3105.12  8.44
1496.0  36446.95  3378.18  9.27
1506.0  36128.16  3502.21  9.69
1516.0  35703.58  3635.28  10.18
1526.0  35355.47  3835.79  10.85
1536.0  35069.58  4060.81  11.58
1546.0  34708.16  4276.84  12.32
1556.0  34457.36  4479.76  13.00
1566.0  34164.86  4659.71  13.64
1576.0  33714.29  4862.84  14.42
1586.0  33359.51  4998.06  14.98
1596.0  32961.11  5100.56  15.47
1606.0  32571.18  5200.95  15.97
1616.0  32156.21  5294.92  16.47
1626.0  31771.93  5388.09  16.96
1636.0  31326.06  5442.00  17.37
1646.0  30840.36  5427.41  17.60
1656.0  30342.57  5374.62  17.71
1666.0  29873.41  5311.93  17.78
1676.0  29453.55  5229.59  17.76
1686.0  29411.45  5166.98  17.57
1696.0  29052.01  5029.14  17.31
1706.0  28613.36  4821.20  16.85
1716.0  27944.47  4564.82  16.34
1726.0  27523.58  4350.58  15.81
1736.0  27167.55  4215.65  15.52
1746.0  26819.99  4065.30  15.16
1756.0  26352.17  3858.93  14.64
1766.0  25950.76  3696.02  14.24
1776.0  25733.96  3603.13  14.00
1786.0  25468.85  3513.35  13.79
1796.0  25144.26  3452.96  13.73
1806.0  24846.88  3418.78  13.76
1816.0  24492.53  3369.30  13.76
1826.0  24049.65  3312.95  13.78
1836.0  23447.37  3196.07  13.63
1846.0  23057.19  3097.34  13.43
1856.0  22644.78  2946.13  13.01
1866.0  22558.57  2526.70  11.20
1876.0  22322.63  1954.85  8.76
1886.0  22034.63  1532.66  6.96
1896.0  21514.98  1311.06  6.09
1906.0  20193.02  725.56  3.59
1916.0  19960.67  671.06  3.36
1926.0  19718.96  658.49  3.34
1936.0  19579.29  651.00  3.32
1946.0  19560.97  656.80  3.36
1956.0  19388.55  687.03  3.54
1966.0  19354.23  698.97  3.61
1976.0  19201.04  723.88  3.77
1986.0  18944.59  727.15  3.84
1996.0  18673.01  762.46  4.08
2006.0  18514.12  785.38  4.24
2016.0  18215.64  810.35  4.45
2026.0  17909.22  824.26  4.60
2036.0  17652.06  854.59  4.84
2046.0  17374.82  865.89  4.98
2056.0  17064.26  882.93  5.17
2066.0  16791.57  888.82  5.29
2076.0  16545.25  900.10  5.44
2086.0  16394.52  934.28  5.70
2096.0  16100.21  929.38  5.77
2106.0  15806.06  956.80  6.05
2116.0  15736.14  965.73  6.14
2126.0  15554.85  999.60  6.43
2136.0  15258.51  998.47  6.54
2146.0  14853.45  988.64  6.66
2156.0  14604.38  1006.84  6.89
2166.0  14366.07  1026.40  7.14
2176.0  14128.44  1012.98  7.17
2186.0  13980.19  1022.70  7.32
2196.0  13852.76  1022.56  7.38
2206.0  13790.00  1039.48  7.54
2216.0  13655.61  1035.24  7.58
2226.0  13540.23  1004.54  7.42
2236.0  13404.39  971.84  7.25
2246.0  13162.51  918.44  6.98
2256.0  12980.74  868.66  6.69
2266.0  12834.46  825.01  6.43
2276.0  12713.52  786.25  6.18
2286.0  12602.64  745.91  5.92
2296.0  12501.79  703.44  5.63
2306.0  12136.32  652.35  5.38
2316.0  11736.06  611.68  5.21
2326.0  11720.29  623.41  5.32
2336.0  11665.36  590.32  5.06
2346.0  11501.61  565.10  4.91
2356.0  11241.81  536.92  4.78
2366.0  11163.72  532.33  4.77
2376.0  10906.36  494.55  4.53
2386.0  10752.86  484.34  4.50
2396.0  10611.07  477.47  4.50
2406.0  10442.46  455.19  4.36
2416.0  10196.59  433.01  4.25
2426.0  10071.76  401.42  3.99
2436.0  9871.11  409.96  4.15
2446.0  9707.92  368.79  3.80
2456.0  9553.15  376.16  3.94
2466.0  9291.20  356.05  3.83
2476.0  9038.48  303.38  3.36
2486.0  8794.17  315.31  3.59
2496.0  8663.70  341.42  3.94
2506.0  9144.96  328.10  3.59
